    #Hard_water    #Hard_water    #Hard_water
   #Erot(W)cm-1             #J    #Speed(m/s)
         438.74              6         504.63
          52.41              2         628.63
          74.59              2         601.06
         950.03              5         597.62
         535.73              7         770.13
         257.98              4         265.76
         133.49              3         554.31
         134.11              3         663.50
          62.61              2         332.20
         481.62              6         484.99
         159.29              3         719.64
         334.71              4         582.72
         189.69              3         436.36
          76.66              2         564.75
         522.75              6         483.66
         379.20              5         893.17
         322.98              5         236.52
         141.97              3         320.06
         637.78              8         556.37
        1125.53              9        1009.74
         255.00              3         312.50
          50.86              2         444.42
         508.00              8         884.61
         138.55              2         447.50
         246.58              4         429.14
         137.93              2         471.06
          33.43              1         672.58
        1042.54             10         232.17
          77.61              2         699.71
         236.70              3         343.74
         324.93              5         451.21
         917.88              7         404.13
         440.02              5         530.01
         255.38              4         435.07
         470.41              5         541.30
         423.61              5         383.24
         145.68              3         581.46
          74.88              2         198.27
          31.66              1         312.81
         479.99              4         536.65
         270.25              4         512.14
         279.19              4         676.73
         318.30              3         392.91
         297.38              5         190.28
          98.27              2         718.41
         126.11              2        1114.45
         526.09              4         268.27
         370.86              5         226.41
         261.17              4         555.13
          43.73              2         521.44
         280.26              5         558.87
         316.92              4         478.53
         339.51              5         756.72
         815.22              8        1138.41
         323.10              4         472.04
         245.33              5         454.61
         794.05              8         320.87
         171.03              4         740.75
         250.94              3         211.34
         206.73              4         446.34
         383.95              6         771.76
         293.39              5         434.66
          33.65              1         258.42
         397.27              4         743.08
         357.59              4         517.01
         491.27              6         706.61
         395.67              4         399.74
         472.23              5         601.57
         280.02              5         396.60
         238.98              4         188.80
         251.08              4         292.41
         502.56              6         160.62
          28.18              1         590.01
          14.65              1         412.66
         299.55              5         292.93
         943.84              6         488.99
          84.04              2         403.48
         949.71              8         480.17
         416.73              6         418.05
         207.09              3         288.43
          19.75              1         342.36
         209.73              3         354.16
         182.42              3         764.79
         257.90              3         605.75
         129.08              2         348.22
         100.62              3         341.83
         326.25              4         446.76
         509.04              6         318.90
        1203.37             11         487.51
         176.36              3         454.18
         457.12              6         508.19
         486.59              4         409.07
         509.76              7         473.32
         391.53              5         430.82
         455.57              4         343.23
         877.78              5         209.97
         446.49              6         379.45
         153.54              3         417.76
         573.97              6         823.14
         377.27              5         824.74
         810.94              8         493.92
         455.62              5         396.22
         282.05              4         436.61
         496.03              6         361.94
         377.41              5         811.08
         850.51              7         590.45
         231.14              4         401.04
         177.09              3         518.61
         180.54              4         612.33
         651.62              7         679.26
         202.23              3         214.41
         500.33              7         239.19
         102.68              3         678.70
         101.23              3         704.34
         446.37              6         473.24
         106.09              2         622.77
         547.38              4         718.11
         231.57              4         200.79
         281.95              4         750.00
         133.94              3         277.26
         445.32              7         279.47
         445.59              5         633.04
         307.18              5         338.49
          71.93              2         517.34
         550.66              6         427.20
          26.09              1         391.05
         188.35              2         282.34
         679.23              8         155.41
          94.88              2         423.84
         331.54              4         572.33
         364.09              5         151.55
         161.83              2         236.44
         343.61              5         894.04
         297.70              5         645.93
         585.55              6         548.89
         538.25              7         126.25
         242.36              4         243.36
         798.05              6        1115.58
         821.60              8         808.36
         453.24              4         457.53
         764.23              6         458.18
         349.50              5         609.12
          25.15              1         587.89
         527.15              5         635.48
         258.17              3        1109.48
         270.49              4         445.50
         607.48              4         858.91
         401.73              5         380.12
         255.25              3         354.65
          62.77              1         289.18
         530.69              5         880.92
        1092.46              6         561.29
          52.54              2         288.80
         285.19              5         409.79
         180.53              4         560.39
         293.04              4         493.57
         360.37              5        1103.92
         403.89              5         690.87
         163.96              3         622.79
         476.56              5         335.41
         368.98              5         228.53
         153.01              3         769.27
           5.47              0         325.96
         485.86              5         561.50
         393.59              6         484.25
         265.20              5         625.55
         712.09              7         637.22
          55.47              1         903.78
         388.79              4         555.96
         149.42              2         558.41
          32.23              1         613.32
         141.76              3        1445.53
          98.72              2         260.52
         181.95              3         520.37
         252.16              4         227.20
         530.68              6         441.22
         165.30              3         624.88
        1157.13             10         601.10
         459.36              5         772.69
         332.25              5         257.47
         211.22              4         779.19
         166.76              2         436.46
         249.18              4         630.57
         105.18              2         248.84
         262.32              3         433.21
           7.94              0         297.36
         189.68              3         342.33
         209.81              4         289.50
         152.12              3         711.62
         277.50              4         434.39
         230.17              5         349.82
         565.14              5         381.84
         551.31              5         275.87
         210.96              3         530.84
         149.25              4         524.53
         208.67              4         686.80
         454.07              5         316.73
         380.26              4         609.77
         646.53              6         442.29
         337.44              6         471.12
        1305.56              8         376.59
         261.11              5         346.70
          20.23              1         556.90
          63.46              2        1039.96
         257.14              4         368.06
          70.11              2         245.16
          78.53              3         187.30
         119.54              3         706.28
         273.16              3         598.13
         261.57              3         257.90
         732.46              7         504.07
          40.04              1         533.72
         101.55              3         664.88
         182.12              3         562.93
         411.57              4         236.08
         475.04              6         915.40
         998.83              9         170.49
          51.56              2         617.03
         290.81              4         670.32
         761.47              6         362.69
         235.39              3         448.20
          89.15              3         658.25
         235.66              4         423.03
         136.67              3         151.73
          52.47              2         269.65
          85.10              1         740.26
          86.29              2        1017.89
         365.01              5         189.79
          10.82              1         668.76
         491.85              5         774.23
         390.31              6         432.74
         420.43              5         616.71
         276.72              3         742.67
         287.36              5         227.00
         473.94              6         805.13
         384.00              6         944.17
         105.32              2         540.91
         397.59              4         847.41
         309.12              3         264.50
         813.78              6         527.34
        1030.71              8         621.85
         465.45              6         394.27
         615.30              6         336.15
         396.82              5         316.39
        1017.08              7         315.55
         233.48              3         342.03
         263.23              4         474.45
          95.27              2         402.91
         634.30              6         199.55
         282.54              3         792.01
         537.33              6         626.99
         312.69              3         452.59
         185.66              4          90.72
         703.81              6         360.96
         114.60              2         644.80
         362.36              4         457.40
         186.23              4         843.86
         183.03              3         123.13
         668.61              6         393.70
         546.57              6         344.33
         446.08              4         719.98
         317.34              5         479.63
         135.24              3         614.78
         418.33              4         369.89
          99.75              2         396.52
         368.15              4         410.16
         133.95              2         565.00
        1053.72              7         877.58
          22.20              1         552.94
        1064.33              8         381.66
         158.59              2         367.44
        1010.40              6         325.27
          68.90              2         560.01
         393.94              4         676.96
         356.34              5         557.20
         403.61              5         242.66
         336.14              6         232.43
         199.57              4        1082.03
         200.40              2         589.21
        1159.44              7         526.63
        1168.68              8         602.65
         195.34              4         565.93
         339.86              4         392.79
          99.32              2         420.60
          27.55              1         687.42
        1401.15              7         434.57
         205.98              3         345.24
         116.91              2         273.04
         146.06              3         220.33
         180.23              2         637.40
         609.42              6         388.02
        1181.88              9         429.99
          49.30              2         162.82
         301.94              5         495.56
         291.62              4         557.06
         372.42              5         583.02
         415.44              6          95.55
         527.87              4         596.76
          98.35              2         495.65
         192.00              4         595.01
         393.26              4         185.55
         621.06              5         467.51
         260.07              3         518.03
         477.38              6         547.79
         200.07              4         266.10
          90.32              2         420.66
         171.39              2         398.25
         190.41              4         411.99
         139.47              3         414.48
         186.39              4         636.57
         368.21              6         220.88
          81.12              2         527.77
         219.87              4         352.02
         242.75              4         443.96
          52.45              2         561.88
         278.51              5         525.47
         134.02              3         781.56
         233.09              2        1061.32
         167.46              3         589.66
         247.42              4         578.14
         302.90              5         604.11
         160.84              3         699.88
         556.18              5         647.15
         119.67              3         821.07
         143.00              3         286.44
         320.53              4         436.72
         226.23              4         433.64
         293.91              4         505.05
          17.16              1         641.85
         145.38              3         638.48
         601.12              7         108.69
         594.33              6         353.03
          87.08              3         289.21
        1051.71              5        1089.81
         302.89              5         152.42
         177.52              3         360.31
          72.40              2         685.76
         535.02              7         717.88
          72.07              2         217.48
         281.24              4         851.90
        1244.10             10         452.83
         480.69              4        1152.58
         318.30              5         658.15
         131.93              3         280.57
         423.45              5         679.60
         188.06              4         552.97
          65.56              2         355.81
         212.30              4         457.90
         217.22              3         249.04
         382.19              5         502.37
         180.61              3         284.79
         522.43              6         622.76
         109.40              2         555.55
         153.58              3         221.91
         321.20              6         755.17
         758.32              8         473.80
          71.15              2         583.06
         336.83              6         523.79
         506.97              6         390.22
         575.77              6         630.71
         252.45              4         309.16
         193.95              3         215.61
         354.34              3         168.79
          90.94              2         697.25
         302.46              5         215.23
         371.86              5         674.36
         666.63              7         459.72
         295.26              5         513.03
         949.93              9         933.07
          13.03              1         358.62
         278.23              4         273.19
         167.84              3         382.91
         110.11              3        1059.34
         811.30              7         802.31
          34.47              1         418.98
         291.29              4         553.65
          32.43              1         338.91
         602.92              6         519.55
         276.72              4         137.77
         167.65              3         488.10
         754.71              9         372.03
         109.12              2         944.65
         608.98              7         445.23
         792.89              5         608.56
         923.88              6         596.27
         147.67              3         156.02
         340.64              5         245.23
         247.57              3         467.91
          75.48              2         282.80
         129.70              2         465.73
         887.82             10         358.50
         113.34              2        1042.02
        1171.01              9         910.81
         287.67              4         293.39
        1360.98              9         418.06
         507.68              3         253.39
         218.05              3         491.69
         271.99              4         145.25
         389.42              6         409.72
          42.02              1         328.05
         448.57              6         755.79
        1285.71             11         525.72
         214.29              4         675.49
         656.49              6         957.99
         384.98              4         393.46
         926.80              7         172.45
        1123.40             10         397.19
         544.22              5         572.52
         565.94              4         709.10
          71.67              2         253.97
         706.88              8         897.10
         136.13              3         669.84
          95.82              2         672.34
         151.25              3         466.78
         463.67              5         579.25
          77.47              2         418.55
         327.51              5         355.39
          50.83              1         432.29
        1306.74              8         324.35
         583.96              7         263.74
         183.27              4         805.57
         430.53              4         277.60
         676.23              6         814.74
          68.37              1         532.47
         538.85              5         687.35
         168.82              3         354.60
         170.43              2         567.44
         483.05              5         177.45
         692.85              4         112.39
          76.70              1         484.42
          71.88              3         605.87
         601.87              4         868.70
         276.14              5         346.39
         325.42              4         388.42
         905.61              5         514.55
         473.11              6         916.14
         449.25              6         189.63
         131.34              4         357.04
         311.33              5         356.16
          13.05              1         361.05
         146.90              3         544.82
         104.84              3         316.04
         161.56              3         227.17
         191.15              3         185.98
         227.08              3         583.04
         916.92              9         402.65
         244.90              5         420.36
         475.67              5         165.89
         142.66              2         293.04
           5.96              0         230.34
         312.67              3         378.86
         362.23              4         944.47
         485.79              6         396.00
         222.86              4         935.40
         622.84              7         323.79
         909.08              7         513.07
         980.77              8         205.66
         261.85              5         244.69
         253.70              3         209.55
         593.47              7         331.86
         225.70              3         608.85
          41.54              1         490.30
         159.45              3         566.48
        1598.87              8         236.55
         266.69              3         637.66
         639.29              3         617.71
         312.94              4         380.18
         396.95              6         813.63
         406.21              5         647.18
          90.76              2         703.02
         180.36              4         216.35
          21.37              1         429.21
         489.87              7         203.80
         300.83              5         922.55
         337.66              5         779.69
         329.82              3         263.90
         161.64              3         644.53
         351.45              5         334.96
         218.92              4         250.32
         330.90              4         609.49
         271.21              3         624.02
         712.55              7         322.00
         157.04              3         728.19
        1003.53              7         452.66
         738.66              7         200.37
         273.78              5         516.11
         159.08              4         984.91
         158.31              3         406.06
         213.93              4         568.01
         516.45              7         745.14
         386.94              6         522.51
         313.74              5         465.78
         230.24              3         305.90
         606.33              7         489.87
         340.39              5         563.22
         317.31              4         516.83
          82.95              2         856.67
         170.31              3         656.66
         483.82              6         249.74
          97.73              3         626.38
          53.97              1         673.50
         352.70              5         769.62
          41.25              1         374.49
         443.54              6         506.19
         415.94              4         442.19
        1017.15              8         345.61
         236.86              3         432.50
         735.91              9         634.85
         155.63              3         508.72
         134.57              3         464.89
         615.78              6         440.01
         222.30              4         805.35
         192.21              4         450.52
         433.43              4         400.50
         157.03              2         212.13
         270.13              4         518.02
         345.48              4         548.58
         413.17              6         436.47
          91.00              3         122.93
         557.41              6         644.65
         984.48              8         426.30
        1725.27              9         577.35
         264.21              3         507.95
         710.42              8         547.01
         203.32              3         336.66
         351.98              5         632.55
         123.12              3         489.07
         413.16              3         652.49
         804.37              9         733.40
         214.82              3         456.06
         132.66              3          72.87
         338.71              6         342.46
         354.25              5         335.85
          49.30              1         533.38
         109.24              2         416.78
         117.88              3         236.23
         989.84              9         414.43
         150.22              3         827.50
          60.26              2         448.99
         741.93              8         446.61
         143.22              2         668.28
         108.06              2         494.70
         396.40              6         300.21
         794.95              7         677.53
         969.09              5         490.12
         230.55              5         428.33
         226.08              4         715.91
         268.65              4         267.80
         108.25              3         537.67
         136.34              2         358.19
         218.99              4         264.66
        1384.90             10         174.71
          37.22              1         402.22
         343.94              4         639.86
         505.12              6         217.02
         765.03              7         397.22
         243.89              4         331.41
         316.14              5         262.54
         369.06              5         672.87
         779.78              5         488.27
         250.53              4         520.12
         180.08              3         594.43
         229.11              3         344.45
         237.08              3         314.00
         214.04              4         325.31
         876.83              8         400.60
        1307.18              9         306.59
         960.62              7         439.22
         841.24              6         731.17
         742.98              6         165.27
         186.27              4         483.37
         230.45              4         592.44
         229.08              4         489.37
         251.26              3         579.20
         400.66              7         373.73
         305.92              5         800.06
         310.70              4         421.41
         842.95              6         562.54
         250.86              4         802.89
         802.86              8         238.73
         417.76              6         200.23
         161.92              3         394.87
         164.41              3         227.81
         515.99              7         712.75
         418.64              5         432.37
         199.55              3         776.61
         138.91              3         619.04
         202.94              3        1023.59
         969.59              7         303.66
          98.76              1         729.24
         588.51              4         636.49
         292.16              5         624.38
         593.38              5         376.65
         716.04              7         309.38
         389.67              6         341.04
         212.31              4         154.17
          92.44              2         483.51
         384.21              4         457.69
         401.42              5         145.57
         711.42              6         383.66
         835.19              7         430.33
         505.42              5         364.84
         166.82              3         170.28
          94.68              2         400.67
          65.26              2         546.16
         179.24              3         588.83
         242.05              3         359.09
         280.76              3         300.60
         478.29              5         688.96
        1493.04             10         312.44
         230.22              3         899.47
         158.89              2         279.63
          53.74              1         185.86
         599.41              5         671.00
         432.50              6         540.22
         356.78              3         398.12
          63.98              2         665.26
         337.48              4         331.84
         683.49              8         848.94
         285.03              4         198.99
         413.30              4         506.92
         251.15              4         226.19
         117.31              3         476.18
         244.50              4         786.38
         588.72              4         741.45
         189.42              3         565.16
          29.74              1         577.98
         471.91              5         302.98
         159.74              4         332.77
         678.45              5         406.88
           7.43              0         554.83
         141.83              2          96.67
         788.58              6         644.67
         381.33              5         524.36
         158.89              3         359.74
         532.18              5         371.79
         129.34              2         821.94
         774.88              8         667.59
         257.76              4         393.81
          61.56              2         394.97
         366.36              6         305.56
          91.55              2         624.81
         583.66              6         431.45
         165.26              3         672.23
         649.69              6         753.66
          70.56              1         227.42
         315.85              4         324.63
         469.47              5         348.25
          91.87              2         488.02
         679.37              8         592.69
         304.39              4         204.27
          59.05              1         317.21
         344.40              4         776.64
         313.72              4         393.89
         585.62              5         342.23
         160.43              2         197.48
         663.43              8         496.93
         883.76              7         560.41
         246.26              4         416.14
         496.20              7         924.90
          27.57              1         215.11
         307.40              4         665.30
         294.01              4         545.49
          71.84              2         325.14
        1096.10              9         846.79
         913.92              8         232.51
         272.12              4         842.05
         464.98              4         330.72
         432.03              5         446.53
         361.39              4         816.05
         853.63              5         677.58
         251.82              4         375.09
         915.33              8         343.53
         528.53              6         360.68
         253.64              4         775.37
         199.93              3         354.66
         892.51              8         655.25
         944.65              8         430.77
         394.81              5         859.93
          65.41              2         406.36
         959.45              9         658.47
         963.34              8         834.00
         445.46              6         335.90
         151.98              4         878.62
         794.71              9         318.90
         141.95              3         623.91
         332.13              4         302.20
         576.69              6         173.32
         606.32              6         201.78
         183.05              3         567.48
         114.00              2         255.89
         158.92              3         386.60
         179.45              3         605.82
         232.61              4         437.39
          53.73              2         480.74
         234.19              4         792.24
         567.80              7         357.39
         173.88              3         347.01
         197.01              3         685.32
         148.14              3         487.93
         361.81              4         683.81
         376.70              5         268.18
          32.42              1         207.01
         251.87              3         581.05
         329.53              4         596.24
          71.89              2         817.68
          98.67              1         699.01
          73.07              2         641.77
         433.71              5         706.21
         199.34              3         562.52
         254.77              3         320.32
         465.73              6         375.09
         650.14              4         432.18
         504.72              6         454.66
          62.46              2         166.04
         710.21              6         823.16
         452.64              5         822.62
         834.36              8         229.02
         237.49              3         701.25
         306.38              3         388.07
         146.84              2         383.10
         406.71              6         401.94
         147.73              2         372.36
         635.73              6         346.64
          56.49              2         414.68
         577.60              6         483.23
        1294.29             10         680.31
         158.25              4         568.38
          75.82              2         396.82
         148.50              4         328.90
         249.61              4         840.41
         281.73              5         454.65
        1072.26              8         547.98
         274.16              3         283.79
         508.30              7         417.47
         437.73              6         656.08
         478.57              5         278.74
         602.66              5         527.60
         218.27              3         215.11
         132.82              3         407.95
         343.46              5         462.34
          47.70              2         328.59
         623.18              7         755.42
         627.53              8         647.65
         182.29              4         169.62
          83.72              2         957.78
           1.96              0         672.19
         769.57              7         656.66
         230.18              2         290.19
         292.13              5         271.99
          54.18              2         530.79
         125.82              3         581.12
         196.42              3         424.97
         168.55              3         671.41
         284.20              4         456.89
         201.40              4         358.16
         366.95              5         179.40
         708.91              7         516.26
         333.73              6         328.68
        1512.25              8         512.84
          96.59              2         947.86
         109.04              3         776.29
         244.31              4         293.04
          96.60              2         580.49
          73.43              2         390.17
         124.47              3         229.98
         305.62              5         392.44
         974.53              8         356.13
         177.87              4         451.96
         343.52              6         423.99
         123.47              3         442.96
         535.76              5         215.19
         296.94              3         240.52
         695.78              5         535.27
         116.58              2         367.86
         343.55              5         370.30
         432.33              5         654.06
         394.69              3         706.83
          49.97              1         379.95
          53.69              2         548.43
         458.14              6         437.72
         146.12              4         673.65
          33.45              1         386.80
        1142.70              7         457.57
         583.16              4         153.36
          93.58              2         779.14
         564.06              5         711.28
         603.75              5         710.38
         290.14              4         558.00
         730.12              8         595.19
         249.10              5         532.75
         172.72              4         450.53
         181.04              4         465.76
        1382.80              7         682.70
         337.21              4         352.12
         153.01              3         279.32
         376.89              5         145.31
         544.08              8         677.74
         256.10              3         566.63
         656.73              5         371.50
         402.94              5         495.34
          82.35              2         327.30
         457.84              4         641.39
         976.44              8         699.62
          53.46              2         569.72
         112.37              3         837.63
         886.12              9         592.66
         290.20              5        1320.00
         136.77              3         930.22
         523.31              6         513.02
          52.68              1         164.53
         163.45              3         618.41
         626.34              4         221.56
         407.57              6         674.78
         300.76              4         473.37
          64.05              1         675.83
         376.76              5         354.28
         207.59              4         272.53
         406.02              4         816.33
         468.42              7         325.30
         218.25              5         183.37
         472.48              7         579.15
        2133.99             12         331.32
          74.25              2         501.71
        1239.63              7         848.19
         496.47              6         625.74
         132.64              2         487.21
         115.94              3         283.84
         706.61              6         249.91
         523.24              6         717.98
         431.46              5         488.72
         136.65              2         216.54
          61.58              2         275.63
         430.09              4         225.29
         342.09              4         750.37
         868.83              9         802.58
         531.45              6         558.13
         797.61              8         751.10
         854.93              7         830.43
         712.13              6         238.08
         721.93              7         785.34
         518.66              7         201.53
        1059.63              9         808.05
         355.16              6         456.95
         894.66              7         363.65
         317.22              5         187.94
         174.69              3         183.98
         226.90              4         276.67
         153.43              2         200.82
         506.29              4         831.13
         131.71              3         286.68
         375.11              6         428.57
          53.51              1         376.37
         188.63              4         230.43
         162.55              3         459.56
         105.07              3         574.04
          88.49              3         312.73
         243.62              4         632.70
         444.97              5         298.83
         201.62              4         311.00
         333.85              5         555.77
         412.59              5         262.05
          16.85              1         333.01
         220.18              3         367.41
         656.12              8         596.30
         872.89              7         541.92
         234.65              4         329.12
         185.98              3         107.56
          98.80              2         362.28
         163.33              3         476.32
         348.00              4         343.38
         216.87              4         309.21
          89.30              2         543.74
         334.77              3         503.66
         309.45              4         593.50
          41.24              2         372.03
         223.27              3         257.86
          90.16              1         745.85
         503.42              6         386.00
         645.77              6         384.96
         148.26              3         876.89
         504.03              5         456.61
        1017.28              7         504.40
          77.75              2         311.56
         630.88              6         169.35
        1135.98              8         434.08
         835.24              9         464.46
         573.77              5         759.98
          76.86              2         595.62
         215.97              4         450.84
         242.72              4         470.63
         252.71              4         291.74
         149.77              2         340.19
          55.12              2         448.28
         220.78              4         612.53
         134.23              2         257.15
         424.24              5         196.77
         430.17              6         221.86
         229.59              3         189.68
         464.50              6         262.60
         345.73              6         603.26
         713.58              7         607.94
         574.53              5         174.86
         575.29              5         401.99
         584.77              8         495.46
         131.28              3         369.44
         499.46              7         423.50
         207.09              4         975.71
         393.37              4         227.22
         444.78              6         195.68
         288.75              4         297.11
         571.41              6         605.61
         179.03              3         760.14
         218.03              3         396.60
         581.37              5         189.88
         490.18              5         293.00
         325.52              5         302.20
         110.70              3         516.01
         548.61              6         564.21
         372.15              5         473.13
         572.72              6         407.04
        1416.36             10         569.17
        1221.47              9         576.53
         838.56              8         455.42
         300.34              5         366.71
         932.13              7         293.08
        1180.15              9         270.12
          87.12              1         412.50
         716.64              7         165.19
           6.45              1         476.87
         302.92              3         222.15
         481.63              6         322.70
         123.13              3         275.48
         151.06              3         618.64
         361.96              4         670.81
         187.07              4         725.76
          53.21              2         524.14
         608.08              4         397.69
         272.94              4         489.96
           1.25              0         476.92
         781.73              9         401.22
         170.49              3         584.64
         228.11              4         503.30
         390.70              5         756.96
         237.60              5         255.85
         377.11              5         287.36
         244.90              3         759.29
         392.70              6         805.01
         794.70              7         506.30
         810.27              7         436.93
         494.61              6         688.71
         842.89              8         698.18
         614.32              6         716.27
         400.08              5         772.87
         137.17              2         540.74
         795.12              8         806.64
          81.28              3         376.14
         669.78              5         382.96
         428.84              5         527.03
          46.23              2         666.81
         379.04              4         315.37
        1279.42              8         518.46
         466.41              4         337.72
         482.81              4         584.20
         308.88              6         381.37
          66.51              2         391.21
         839.83              7         274.73
         128.09              3         297.17
         769.93              7         268.82
         241.04              5         725.40
         328.41              6         512.37
         289.07              5         669.86
         443.77              5         495.16
         293.74              5         560.13
         363.12              5         381.30
         284.26              5         573.45
         126.26              3         436.04
         268.47              4         385.05
        1195.93              9         245.49
         251.98              5         366.02
         375.47              6         269.15
         116.13              2         461.79
         621.05              7         676.44
         492.60              7         298.21
         506.02              6         776.39
         121.20              3         359.57
         156.62              4         414.71
          53.24              2         570.88
         464.26              4         324.17
         466.26              7         166.66
         442.07              6         555.54
         668.92              8         546.56
         519.38              6         942.93
         327.27              5         823.44
         169.98              4        1061.76
        1202.42             10         309.09
         172.25              3         221.19
         161.49              3         854.96
         273.53              3         376.44
          69.18              2         786.55
         727.21              5         332.68
         107.32              2         514.51
         475.34              4         260.72
         100.25              3         215.98
         378.89              5         343.75
         592.07              5         668.13
         857.64              8         344.30
         761.93              8         657.52
         636.33              5         199.61
         226.61              4         315.20
          55.73              2         198.73
          77.01              2         719.76
         486.68              6         784.87
          58.77              2         148.82
         198.11              3         251.98
         584.80              6         398.37
         652.29              8         260.99
         349.30              5         469.66
        1064.59              6         636.37
         111.37              3        1078.52
         260.31              3         430.31
         517.92              7         370.21
         935.42              8         301.27
         391.96              5         479.31
         602.20              7         401.47
        1140.19             10         576.47
         406.70              5         817.00
         383.68              4         276.28
         199.74              4         412.93
         186.58              4         619.98
         439.09              4         595.36
         549.40              6         225.53
         396.51              5         446.00
         349.76              4         521.91
         113.30              3         502.67
         384.08              5         604.28
         167.97              3         520.45
         351.03              4         408.25
         584.20              5         515.14
         907.51              6         159.63
         266.98              4         379.53
         950.21              8         353.32
        1161.13              8         905.35
         379.45              5         345.49
          43.06              2         126.28
         403.63              4         416.47
        1133.23             11         125.49
         167.98              4         143.76
         378.41              5         656.08
         284.95              2         491.67
         590.14              5         600.12
        2798.24             10         290.76
         415.36              5         449.74
         168.94              4         403.34
         130.93              3         421.15
         223.33              3         388.41
         282.32              5         597.11
         167.98              3         736.52
         141.12              3         640.46
         772.28              7         376.85
          94.68              2         400.82
         241.85              4         921.41
         168.35              2         606.95
         112.23              3         281.65
         278.91              4         379.82
         242.23              3         534.34
         521.14              4         473.55
        1061.35              8         495.06
         270.31              4         403.91
         299.37              4         474.82
         594.30              7         810.09
         672.52              7         357.65
         598.02              8         297.18
         364.30              4         370.30
         844.50              8         367.84
         265.75              5         387.51
         378.42              5         692.21
         460.85              5         329.54
         363.04              5         351.85
          75.55              2         218.01
         275.78              4         382.17
         358.47              5         388.77
         455.57              5         250.35
         430.88              6         488.92
         534.26              3         596.86
          70.92              2         464.73
          91.88              2         777.73
         640.12              6         632.79
         386.83              4         364.09
          53.57              1         547.53
         836.34              8         298.71
         222.55              4         374.82
         660.59              5         499.52
          14.15              1         291.31
          27.05              1         558.11
         417.88              4         585.77
         341.99              3         670.04
         952.54              7         711.97
        1566.41             11         377.52
        1585.53              9         811.77
         610.03              7         305.23
         266.78              5         741.66
         180.25              3         372.75
         269.50              4         554.46
         629.35              5         614.55
          44.72              2         511.01
         222.22              5         322.75
          59.86              1        1111.94
         338.76              5         373.84
          78.15              2         440.02
         682.71              5         354.06
          32.70              1         381.59
         279.94              4         184.50
          95.93              3         171.59
         393.05              5         488.52
         142.78              2         296.67
         497.77              6         548.39
         145.56              3         416.87
         144.54              3         721.12
         255.99              5         815.31
         366.35              6         621.35
         525.00              7         626.60
         371.63              5         675.93
        1278.96             11         287.99
         264.58              4         452.21
         531.89              4         480.47
         431.41              5         130.63
         179.70              3         324.94
          13.86              1         297.65
        1053.52             11         436.11
         248.76              4         330.30
         894.33              8         174.74
          91.29              2         684.43
          75.52              1         289.44
          91.57              2         193.54
         105.56              3         176.04
         142.16              3         326.98
         355.34              5         346.60
         166.75              3         803.88
         332.85              5         389.50
         238.71              4         598.74
         188.87              2         447.15
         534.64              6         955.57
        1094.85              7         328.13
         388.66              6         676.80
         114.66              3         376.08
         626.55              5         392.32
         398.72              6         308.28
         387.12              5         267.57
         144.90              2         421.72
         112.25              3         432.05
         118.06              2         634.26
        1854.23              6         249.57
         234.87              5         301.29
          40.35              1         423.85
         239.34              5         629.62
         394.01              6         338.62
         337.20              5         388.05
         727.61              6         548.99
         393.91              5         324.00
         409.05              5         123.75
         536.57              7         116.66
         403.77              5         638.14
         134.13              3         294.19
         399.07              6         398.36
         409.89              4         399.38
         448.94              5         596.55
           6.01              0         437.64
         589.28              7         394.53
         320.69              5         409.59
         430.07              5         258.08
         566.46              5         610.28
         565.35              7         162.74
         210.76              3         280.69
         728.60              8         383.73
         731.25              7         456.53
         275.84              4         293.22
         459.69              7         631.38
        1050.75              4         526.23
        1124.28              5         306.53
         168.43              2         449.17
          63.35              1         253.68
          90.36              3         337.67
         465.17              6         808.47
         922.93              8         747.60
         286.49              4         825.43
         549.03              6         476.22
         205.31              4         644.75
         385.65              6         196.24
         407.87              6         328.83
        1869.07             12         675.32
          67.05              2         377.85
         282.31              4         331.90
         608.49              6         878.14
          36.37              1         809.56
         195.16              3         196.07
          60.18              1         641.23
         470.63              6         188.23
         550.88              5         633.63
         333.32              5        1099.03
         428.84              6          86.10
         349.59              5         558.71
         858.52              7         368.90
         246.19              3         778.36
         383.27              6         162.79
         267.65              5         322.39
         818.44              6         371.47
          57.53              2         516.35
         115.42              2         494.72
        1172.28              9         426.11
         148.87              2         406.93
         258.40              4         849.01
         356.41              4         803.90
         359.44              4         466.49
         380.16              3         738.81
         324.07              4         529.59
         120.32              3          99.35
         476.95              7         578.82
          33.49              2         336.71
         994.08              8         380.71
         671.25              9         273.68
         323.72              3         531.84
          71.25              2         468.63
          69.95              1         569.29
         424.57              4         437.49
         485.62              5         790.46
         161.07              2         260.79
         194.42              3         604.78
          98.08              2         524.76
         185.24              3         556.02
         348.52              5         434.69
         102.51              3         395.23
         280.96              4         386.95
         212.21              4         166.53
          65.43              1         620.19
          51.16              1         811.58
         177.23              3         356.36
         275.19              4         282.11
         493.82              5         521.64
         431.55              4         876.08
         642.31              8         741.99
         137.92              3         447.29
          52.49              2         466.55
         754.58              8         613.36
         623.52              4         623.63
         560.13              6         227.67
         663.13              7         546.94
         355.75              5         326.48
         464.81              5         542.98
          73.97              2         788.82
         961.73             10         442.76
          70.25              2         865.59
         301.05              5         524.92
          38.87              1         298.89
         157.22              3         296.97
         607.77              5         330.76
         319.53              5         701.80
         221.76              3         696.03
         301.53              4         292.45
          80.37              2         503.39
         693.82              6         341.73
         748.10              7         391.54
         337.78              5         302.22
         166.03              3         252.81
         206.14              2         495.93
         812.27              6         614.10
         675.89              5         303.15
         331.96              4         279.04
        1080.74              9         547.71
         299.38              5         373.37
         994.91              9         163.75
         593.22              7         102.43
         368.21              4         650.44
        1375.22             12         221.27
         667.39              9         165.29
         508.58              5         437.60
          43.27              1         412.72
          57.04              2         376.12
         774.72              6         521.87
         698.88              6         419.73
         470.09              4         654.54
          63.63              2         374.48
         129.69              2         526.61
         769.44              6         629.21
         559.76              4         682.58
         254.62              3         474.83
         246.24              4         242.27
         886.75              7         307.53
         282.02              4         452.52
         991.59              8         613.67
         269.35              4         728.42
         370.39              3         411.11
         387.08              5         481.11
         160.59              3         820.63
          71.51              2         174.72
          89.72              2         944.13
         432.00              5         300.48
         532.82              3         681.44
          33.29              1         235.35
         292.43              4         208.61
         570.35              5         536.86
         258.70              5         662.61
         179.06              4         250.88
         182.61              3         546.37
         209.82              3         708.09
         192.09              4         878.67
         880.45              5         407.36
         232.99              3         352.28
         175.52              4         466.55
         127.64              2         310.36
         238.71              4         241.14
         655.12              6         595.25
         518.03              5         742.39
         594.52              8         398.27
         826.40              7         595.54
         274.92              5         450.17
         270.24              5         313.22
         391.01              6         481.00
        1995.93             14         397.02
         243.00              2         569.07
         230.38              4         401.20
         482.06              5         625.43
         614.64              5         322.00
         444.78              4         663.17
          37.35              1         384.24
         447.97              5         525.80
         661.56              5         222.15
          51.18              1         572.82
         368.28              5         260.97
         320.59              4         402.24
         103.57              3         639.72
         172.65              3         167.34
         270.43              3         338.98
          21.27              1         414.83
         284.55              4         585.93
         106.32              2         430.79
         427.87              5         620.73
         321.07              5         401.27
         804.78              5         298.17
         330.45              6         469.42
         953.42              7         613.32
         186.95              4         493.47
         583.55              6         654.38
         404.95              6         287.42
          40.17              1         498.68
         239.54              3         466.57
        1072.31              9         103.02
         319.25              4         279.56
          64.35              1         427.59
        1176.67              8         438.81
         279.18              4         477.00
         291.10              4         412.91
         112.34              3         569.54
         172.18              3         676.29
         350.24              4         378.95
         359.85              6         156.87
         690.46              7         147.03
         899.79              6        1230.64
         410.93              4         396.67
        1457.58             11         299.06
        1559.17             10         551.59
         466.67              5         707.10
         506.12              5         495.32
         122.92              3         406.59
          46.99              1         356.47
         410.79              6         575.17
         414.13              5         182.99
         220.27              4         630.03
         134.25              3         342.75
          55.05              1         311.16
         464.50              4         825.33
         145.82              3         262.07
         198.48              3         775.52
         221.08              4         912.31
         389.58              5         526.85
         493.12              6         453.36
          49.24              2         739.01
         328.55              4         840.43
         698.57              7         407.73
         232.11              3         509.63
         460.78              4         350.56
         169.08              3         300.78
         190.03              3         690.67
         573.34              5         423.13
         306.28              4         459.46
         483.88              4         597.98
          40.71              1         659.90
         194.13              3         258.46
         366.75              4         255.07
         299.38              4         631.93
         805.78              7         370.09
         372.83              5         359.44
         102.12              2         591.11
         181.71              4         667.52
         107.73              2         243.02
         655.23              5         756.92
         290.91              5         573.02
         467.27              4         538.36
         105.53              2         223.36
         107.30              1         429.38
         321.96              5         797.36
         311.45              4         567.42
         416.87              4         238.86
         350.64              4         604.52
         331.07              5         678.28
          71.82              2         502.90
         402.83              5         507.01
         126.27              3         312.17
          49.35              2         890.04
         275.28              5         297.12
          92.57              2         387.17
         270.79              4         549.19
         322.06              4         449.18
         748.15              5         735.76
         201.84              4         537.19
         275.02              4         473.30
         507.86              6         213.92
         221.38              4         631.70
         962.84              8         295.40
         310.03              4         254.56
        1352.48             10         440.20
         463.11              6         567.57
          41.80              2         309.18
         208.21              3         630.31
         639.66              5         257.69
         442.76              6         333.98
         574.26              4         670.50
         710.41              5         553.68
         145.54              3         487.76
         293.97              4         159.93
         407.83              6         269.22
          99.88              2         295.97
          29.53              1         758.99
         185.43              3         490.43
         154.06              3         648.14
         150.12              3         462.92
         632.95              6         358.16
         271.27              4         769.20
         636.56              7         289.17
         135.92              3         642.30
         338.84              5         411.66
         395.49              4         418.26
         894.50              8        1116.65
         125.25              3         640.97
         188.31              4         307.00
         679.15              6         175.77
         378.77              4         305.21
         803.61             10         222.92
         121.24              3         609.77
         129.87              2         693.14
         532.52              7         549.34
        1458.47              8         687.18
         477.19              5         873.60
         473.36              5         403.61
         256.98              3         268.87
          83.49              2         426.24
         266.06              3         456.02
         679.17              7         698.18
          55.49              2         374.09
         649.65              7         477.88
         198.66              4         345.73
          84.51              1         365.73
         318.87              4         275.70
         535.01              8         195.69
         343.47              5         420.90
         954.45              9         907.46
         254.96              3         189.66
          14.35              1         574.41
         111.15              2         515.00
         320.60              5         667.69
          40.97              1         386.65
          36.85              1         392.48
         121.33              3         369.44
         300.99              5         554.76
         666.28              7         625.68
         227.02              4         606.16
         542.52              7         520.55
         233.45              3         415.09
         917.63              7         517.25
         132.05              3         547.59
         255.68              3         356.24
         115.28              2         538.53
         330.64              5         324.81
         190.34              4         983.96
         559.34              6         245.53
         310.65              4         316.98
         104.31              3         461.46
         155.49              3         440.11
          62.30              2         469.44
          91.51              2         775.23
        1224.39              7         587.76
         184.68              4         258.31
         414.71              3         253.36
         167.24              3         863.09
          66.07              2         444.33
         141.31              2         269.61
          66.33              2         625.89
         535.83              6         499.06
         111.41              3         485.32
         276.45              3         253.34
         138.01              3          77.18
         150.01              3        1094.92
          57.87              2         464.70
         160.81              4         944.52
         397.27              6         535.61
         913.87              8         361.46
         515.39              7         309.01
         396.39              4         567.60
         498.21              6         400.35
         212.82              3         228.79
        1231.24              9         487.30
         256.29              3         351.37
         436.48              4         288.07
         139.28              2         650.40
         122.56              3         595.12
          15.19              1         327.62
         240.47              3         544.80
         677.20              7        1119.88
         329.67              3         723.60
         100.29              2         440.33
         338.87              4         265.01
        1619.38             10         275.08
         445.92              6         837.25
         219.25              4         258.78
          49.20              2         566.12
         624.98              5         666.12
         431.49              7         310.55
         207.10              4         843.96
         340.93              4         268.08
         312.26              4         530.25
         413.06              6         743.02
        1405.83              9         448.58
         246.03              3         686.75
         192.51              3         473.06
         234.31              4         562.21
         439.21              7         667.35
         157.14              3         146.73
         350.26              5         385.80
         342.46              5         303.20
          73.56              2         231.75
         504.77              5         420.20
          71.12              2         452.49
         151.40              3         614.98
        1149.31              9         414.19
         445.76              5         363.73
         291.27              5        1095.05
         406.65              4         272.43
         133.46              2         822.44
         259.34              4         461.86
         479.12              6         534.14
         105.40              3         305.50
        1090.33              7         355.82
         351.66              6         639.09
         171.22              2         196.74
        1130.08              9         670.89
         547.29              7         553.66
         332.50              5         891.72
         254.90              4         363.78
         210.03              3         189.24
         175.40              3         789.72
          15.19              1         710.64
         366.02              4         137.11
         271.72              3         762.34
          23.18              1         304.90
         387.98              5         547.61
         879.66              9         179.65
          75.30              2         305.46
         291.03              5         428.42
         152.55              2         343.71
          74.64              1         464.10
         726.56              7         817.05
         247.39              4         544.87
         444.43              6         808.16
          89.81              3         253.19
         277.63              4         765.07
         187.22              4         501.08
         618.87              6         716.94
         276.73              3        1183.34
          26.06              1         282.43
         613.37              6         690.06
         672.45              6         805.40
         449.83              5         410.22
         360.90              4         307.59
         609.54              7         366.41
         221.75              3         218.38
         197.31              3         706.86
         151.36              3         306.63
         677.61              7         590.51
         894.00              7         878.45
         447.05              5         572.22
         104.92              2         252.14
         374.30              4         383.22
         142.89              3         606.48
         262.73              5         735.76
         167.45              4         417.68
         268.60              3         798.10
         672.22              7         405.23
         498.35              6         541.49
         866.77              5         543.14
         211.57              4         831.97
         236.98              4         616.20
         311.29              5         663.24
         257.42              5         334.73
         498.14              5         104.96
         855.50              6         567.49
         527.73              8         422.83
          45.94              1         284.93
         296.54              3         612.45
         632.26              8         611.13
         183.81              3         199.03
         121.55              3         772.82
         120.50              2         210.40
         397.11              5         530.78
         826.27              9         353.11
         344.10              4         664.33
         273.88              4         723.13
         125.23              3         369.86
         463.28              7         497.52
         107.83              2         331.42
         205.94              3         658.14
         102.91              3         618.59
         393.74              6         651.59
          77.07              2         448.04
         365.68              3         469.48
         230.10              2         356.51
          67.78              1         454.47
         688.75              5         359.34
         375.13              6         449.42
         629.37              5         549.26
         128.88              3         758.55
         193.21              3         630.06
         808.14              7         298.28
         601.29              7         398.03
         399.53              5         423.22
         698.95              7         182.46
         713.70              7         151.30
         376.83              3         293.97
         319.97              5         397.20
         144.59              3         555.29
         299.99              4         412.54
         190.54              3         506.58
          43.36              2         601.79
           2.84              0         611.03
         557.44              7         365.12
         165.38              3         713.22
         287.57              4         530.18
         735.86              6         197.74
         869.52              7         264.21
         539.79              6         484.89
         130.77              3         401.07
         421.50              5         618.25
         321.35              4         754.01
         982.23              8         333.67
         226.88              4         218.79
         655.62              6         630.50
         726.68              6         574.99
         571.62              6         382.66
         127.67              2         665.32
         194.80              4         541.56
         790.64              8         351.88
         253.51              4         275.41
          22.57              1         347.00
         117.90              3         371.38
        1003.88              7         442.05
          98.22              2         490.98
         204.59              4         319.79
        1102.67              9         563.92
        1017.21              7         909.87
         399.67              5         592.37
         617.09              6         616.13
         597.24              5         441.32
         589.11              7         422.28
         223.86              3         521.39
          14.00              1         948.92
         126.34              3         212.24
         492.33              6         668.50
         464.54              7         339.29
         101.51              1         376.30
         446.02              6         291.29
         299.78              4         734.22
         416.53              4         505.86
         592.66              6         376.43
         613.89              7         237.18
         441.79              6         464.31
         589.95              7         204.47
         430.29              5         781.87
           1.01              0          95.91
         215.53              2         575.74
          74.92              3         635.84
         321.34              5         300.90
         212.87              4         292.16
         104.46              2         549.03
         251.03              3         673.40
         255.01              4         365.53
          47.64              1         556.07
         569.86              6         697.40
         777.29              7         422.56
         445.17              6         307.98
         163.89              3         582.39
         540.44              7         341.06
         209.98              4         731.56
         544.54              5         740.74
        1547.30             11         125.10
         103.22              2         299.01
         385.84              5         261.74
         532.66              6         553.58
         301.39              4         512.27
         124.55              3         673.86
          76.03              2         469.75
         383.76              5         524.17
          24.10              1         217.92
         543.81              6         292.53
        1259.98              9         480.52
          78.34              2         353.83
         212.38              2         155.81
         422.55              6         662.10
          46.36              1         426.81
        1099.36             11         177.96
         535.52              6         195.88
        1020.85              9         807.33
         198.89              3         849.79
         199.68              4         412.10
          79.51              3         731.74
          87.40              2         746.02
         630.02              4         679.69
         282.53              4         277.79
         161.43              2         364.61
          60.03              2         839.53
         359.60              5         472.46
          95.73              2         372.11
         770.78              5         284.81
           6.39              0         319.51
         739.65              6         925.54
         366.13              6         550.45
         187.22              3        1067.13
         320.36              5         535.86
         288.51              5         496.48
         107.75              3         446.23
         982.58              8         459.05
         306.43              5         975.91
         150.57              2         364.59
         328.02              5         342.30
         336.62              6         541.46
          57.43              1         467.94
        1188.13              8         386.71
         300.55              5         553.74
          28.91              1         577.85
        1044.88              8         246.92
         432.08              4         754.01
         334.64              5         340.10
         961.88              9         644.82
         295.82              6         394.67
          75.45              3         432.90
        1475.80              8         607.16
        1385.65              8         549.98
          59.33              1         512.52
          68.29              1         160.41
         440.47              6         422.80
         522.31              5         340.30
         683.73              7         497.26
         259.76              5         528.79
         241.80              3         302.87
         471.60              6         343.11
        1411.95              9         390.34
         286.65              4         336.87
         262.39              3         818.35
          12.06              1         319.98
         484.29              4         628.75
        1015.10              8         498.23
         353.66              4         342.92
           8.48              1         382.94
          95.24              3         513.85
         105.03              3         214.41
          87.76              3         324.53
          57.75              1         703.03
        1159.13              8         725.80
         165.40              3         351.12
         195.59              3         323.38
         269.95              4         828.92
         172.42              3         350.04
         398.30              5         581.26
         501.56              5         535.21
         893.98              7         869.03
         123.01              3         593.50
         137.68              3         375.38
          49.47              2         684.88
         250.60              4         250.93
         235.58              5         417.83
         112.05              2         487.45
         958.92             10         540.73
         439.57              5         688.82
         439.22              5         240.72
         446.04              6         322.79
         150.11              3         631.44
         448.75              6         178.97
         288.57              3         469.15
          11.18              1         428.45
         217.71              4         288.89
         248.90              4         490.11
         300.13              5         520.88
         633.12              5         572.71
         384.71              5         343.17
          38.84              1         401.73
         170.33              4         485.12
         498.38              5         799.42
          43.18              1         343.06
         143.67              2         230.12
         246.46              3         766.70
          98.94              2         465.52
         264.12              4         746.08
          60.37              2         760.26
         850.36              6         895.21
         310.54              4         392.74
         112.08              2         296.99
         581.32              7         417.54
        1097.04              8         469.53
         329.72              4         673.73
         138.98              3         685.88
         362.58              5         368.90
          34.96              1         620.43
         251.39              5         367.45
         259.86              5         453.80
         498.98              6         248.83
         425.52              7         584.84
          62.46              2         647.90
         945.81              7         180.69
         276.65              5         279.96
         704.43              6         335.28
         118.65              2         607.10
         196.85              2         402.27
         698.54              6         355.07
         120.26              2         488.57
        1102.86              7         875.91
         275.97              5         288.66
         659.27              7         536.97
         504.51              6         431.86
         645.72              6         283.74
          69.07              2         768.61
          42.60              1         305.54
         554.71              5         551.23
         515.34              4         617.32
         339.17              5         540.78
         154.07              4         502.65
         433.83              6         190.80
         275.83              4         611.95
         979.87              7         230.90
          75.89              2        1096.55
         217.07              4         238.12
         187.84              4         316.65
         170.98              3         199.99
         191.07              4         249.57
         496.35              5         482.44
          87.87              2         881.64
         147.42              3         484.35
        1091.60              7         411.82
         310.21              5         313.92
         549.50              7         467.01
         624.21              6         633.41
          73.82              2         197.79
         125.98              2         416.60
        1333.45             10         438.16
         397.58              5         909.34
         178.64              3         358.11
          43.70              2         207.35
         723.92              5         416.24
         115.45              2         245.73
         200.94              2         470.91
          90.40              2         507.79
         200.27              3         268.46
          33.25              1         384.57
          96.07              2         249.74
         150.24              3         541.04
         497.57              5         243.34
         345.50              5         124.17
         203.80              4         564.12
        1022.91              9         289.17
         296.32              4         475.67
        1242.30              9         521.20
         509.65              6         350.92
          22.12              1         668.74
          43.86              1         530.84
         386.11              5         602.41
         406.83              6         341.72
         690.89              6         150.67
          67.35              2         790.26
         103.20              2         698.62
         314.28              5         501.83
         230.58              4         346.25
         162.45              4         358.22
         184.66              4         610.11
         652.68              7         690.96
         157.73              3         614.78
         134.94              2         441.35
        1239.27              9         292.94
         494.06              6         246.17
         512.20              6         452.44
         272.12              5         867.93
         271.98              4         306.43
         458.89              5         684.20
         135.59              3         670.56
        1634.93             10         357.78
         770.78              8         401.60
         509.70              6         911.65
         232.93              4         883.17
         167.01              3         360.19
         490.90              5         601.99
         682.61              7         341.18
         652.20              7         339.61
          78.88              2         284.35
          53.07              2         473.39
         194.49              4         530.05
         600.59              5         454.96
         170.09              4         531.39
         787.73              9         453.17
          86.85              2         343.47
         412.33              7         656.70
        1515.57             10         321.68
         368.32              3         348.51
         498.96              6         383.78
          65.66              2         367.40
         463.23              4         371.16
         730.39              7         291.44
         205.12              4         681.83
          22.63              1         290.97
          75.79              2         291.56
          32.47              1         409.25
         409.59              7         361.27
         214.31              4         429.22
         672.65              6         185.89
         239.27              4         453.95
         161.65              2         826.60
          93.14              2         506.67
         249.54              3         933.51
          45.61              2         181.62
         361.11              4         278.09
         495.70              4         963.66
         236.14              3         661.52
         560.93              6         504.66
         400.01              4         513.15
         551.85              7         275.75
         349.51              4         374.82
         279.73              4         603.00
        1588.58             12         427.18
           7.38              0         316.63
         450.15              5         272.89
         332.38              5         408.63
         186.94              4         892.18
        1564.97             10         587.22
         151.37              4         541.56
         303.53              4         528.47
         160.14              3        1250.49
          78.26              2         373.18
         303.63              5         596.39
         195.25              4         273.30
         590.27              7         178.01
          16.51              0         267.71
         166.36              3         461.96
         455.81              5         369.22
         904.74             10         659.49
          48.70              1         341.39
         188.66              4         371.25
         144.57              3         492.98
          30.30              1         438.32
         579.05              6         455.92
         316.37              5         618.38
         300.08              4         323.95
         616.66              5         624.36
         288.89              4         960.01
         790.12              7         548.85
         198.33              3         347.68
        1027.10              9         353.53
          54.37              2         199.45
         462.65              5         654.62
         790.30              7         975.98
        1455.03             11         764.84
         395.99              5        1072.93
         820.78              6         174.31
         215.81              4         623.32
          80.90              2         150.16
         229.12              4         561.60
         166.74              3         358.82
         803.45              9         597.52
         441.61              5         443.79
         337.59              5         652.68
          39.18              1         433.85
         450.26              6         510.20
          33.93              2         454.59
         710.47              8         382.80
         226.31              4         438.39
         239.62              5         560.36
         106.12              3         510.06
         385.50              4         507.69
         150.16              3         494.30
         289.14              5         788.80
         352.67              3         183.68
         295.94              4         413.11
         326.42              6         569.12
         157.78              3         768.57
          50.87              2         378.26
         135.75              3         234.97
         371.89              5         256.18
         601.69              5         630.98
         151.14              3         315.02
         262.25              4         432.39
         271.26              4         759.32
         113.54              2         418.24
         362.11              5         651.74
         482.55              4         684.75
          62.18              2         604.44
         353.69              4         372.31
         212.08              4        1169.47
         304.99              4         330.49
         884.60              9         648.94
         810.78              9         571.86
         162.95              2         479.60
         277.39              3         588.00
         179.26              3         429.40
         125.47              3         450.59
         149.35              3         340.88
         460.14              5         319.40
         320.59              6         600.67
         550.31              5         158.37
         625.70              7         605.60
         170.31              2         629.53
         539.91              6         217.54
          50.02              1         164.17
         360.37              5         356.08
          99.03              2         394.19
         184.19              3          54.84
         280.63              4         804.37
          61.95              1         528.72
         451.35              7         445.10
         278.73              5         403.92
        1105.72              8         745.83
         214.58              4         750.54
         202.53              3         903.66
         288.86              3         282.29
         230.01              4         419.38
          38.75              2         170.67
         484.60              5         446.56
         283.37              3         477.84
         222.26              4         414.25
         655.84              6         447.10
         381.02              5         547.62
         929.81              9         572.22
         323.10              5         392.15
        1436.43             12         641.84
         135.20              3         358.86
         588.92              8         339.74
         168.73              3         684.34
         252.92              4         418.72
         476.08              5         503.43
          82.64              2         230.77
         178.67              3         385.42
         178.67              3         336.53
          81.19              2         690.46
          33.52              1         613.08
         180.69              2         554.28
         796.24              5         199.34
         537.93              6         399.15
          55.45              2         859.71
        1195.45             11         405.59
          28.51              1         611.07
          61.07              2         237.12
         339.08              4         377.17
         109.98              3         770.38
          97.98              2         784.45
          73.63              3         387.06
         435.27              5         815.81
         216.69              3         503.49
         349.92              5         532.55
         597.72              6        1231.64
          97.98              2         238.97
         365.12              6         336.89
         445.53              7         122.96
        2112.98              6         356.42
         416.32              6         298.59
         188.08              3         141.56
         200.87              3         706.14
         128.45              3         668.90
         399.84              5         898.54
          45.46              1         781.25
         325.06              5         615.05
        1404.30             10         386.84
         443.70              5         443.82
         305.86              5         142.96
         448.35              6         431.03
          53.30              2         370.06
         282.88              5         323.14
         751.17              6         408.61
          87.62              2         456.47
         105.33              3         539.93
         455.99              5         611.19
         941.50              7         484.05
         646.26              6         238.96
         430.15              5         846.79
         124.08              3         512.12
         374.54              5         570.52
         177.92              3         620.35
         155.49              4         634.31
         130.40              2         333.21
          40.81              1         485.54
         211.75              4         378.72
         178.07              3         226.21
        1241.81              8         119.09
          57.98              2         660.86
         337.10              4         197.16
          68.46              2         585.05
         938.94              7         406.27
         359.25              5         488.23
         552.38              7         605.57
         398.05              4         638.15
         448.70              6         942.60
          69.94              1         275.74
         197.16              4         573.14
          47.29              1         524.06
         124.72              3         328.21
         297.60              3         356.14
         356.91              4         509.18
         187.41              3         549.85
         525.22              7         364.98
         121.05              3        1080.87
         472.95              6         533.59
          57.61              1         972.48
         883.08              9         200.53
         782.59              6         634.34
         316.91              4         537.78
         193.08              4         890.76
          45.42              2         245.19
         491.03              7         267.42
         124.33              3         534.88
         203.92              3         149.06
         142.67              3         415.31
         466.28              5         824.01
          40.76              1         486.55
         374.86              4         553.10
         732.70              6         262.86
         777.18              7         186.44
         234.67              4         121.75
         597.21              6         214.98
          93.23              2         626.12
         194.21              3         180.93
         397.55              2         275.05
          90.93              2         425.34
         997.16              8         320.23
         230.93              3         364.39
         110.81              3         395.51
         306.95              4         487.44
         393.80              4         374.19
         426.93              5         665.78
          57.96              2         492.11
         424.33              5         286.53
         314.20              3         636.86
         266.01              3         319.28
         226.84              4         142.62
          96.31              2         748.77
          59.97              2         291.51
         343.09              5         702.29
         143.11              2        1129.30
         288.00              5         703.75
         177.98              3         287.50
         287.88              3         545.07
         207.08              4         229.81
         306.04              3         413.65
         242.63              4         399.00
         133.81              3         510.83
         377.87              4         761.80
         241.82              3          45.74
         149.37              2         173.02
         605.31              8         865.13
          81.97              2         630.78
         270.85              4         239.87
          99.11              2         339.98
         568.54              7         225.32
         241.75              4         219.99
         304.36              4         898.99
         542.34              6         696.29
         459.53              4         749.54
           4.79              0         208.13
        1854.19              8         732.05
         567.18              6         738.55
         800.34              7         416.80
         466.14              5         205.18
         350.12              5         216.80
        1166.46              8         388.53
         315.64              5         480.89
         430.23              5         260.21
         238.10              3         415.22
         839.36              5         260.65
          29.53              1         430.53
         196.54              4        1001.79
          61.11              1         648.18
          41.25              1         242.68
         309.93              4         671.11
          23.38              0         235.20
         351.69              6         441.34
          80.72              2         774.77
         597.18              7         326.96
         724.66              6         465.16
         783.07              6         555.55
         199.02              3        1162.46
         262.47              4         422.95
        1335.53              7         616.85
         172.30              2         341.74
         326.26              5         223.03
         924.91              7         894.89
          33.11              1         653.53
         955.63             10         601.04
         224.98              4          87.24
         480.67              6         591.44
         145.35              2         424.63
         308.87              5         320.86
         385.87              5         764.91
          49.91              2         266.56
         580.62              5         828.66
         813.70              6         746.01
         185.10              4         265.14
         569.84              7         513.22
         677.97              7         754.66
         298.47              5         552.07
         543.17              4         501.73
         170.31              3         377.10
         310.37              3         570.77
         564.02              6         169.27
         199.85              4         374.92
         244.97              5         350.83
         503.72              6         635.83
         466.12              6         373.37
          37.07              1         669.67
         570.83              7         854.68
         145.04              3         670.46
           9.09              0         452.73
         260.72              4         143.97
         834.04              5         326.99
         889.52              7         119.13
          63.78              2         305.52
         369.53              3         522.92
         638.13              5         774.37
         757.11              5         345.78
          94.86              3         208.22
         128.19              3         821.32
         256.67              4         704.44
         752.41              7         349.16
         920.89              6         539.63
         575.90              7         446.04
         393.42              5          74.92
         407.27              5         394.87
         951.32              8        1042.75
         313.29              4         454.87
         153.98              4         436.54
         219.91              3         681.38
         193.43              4         513.26
         187.58              3         425.52
         386.60              5         486.17
          20.89              1         896.96
         618.52              7         224.09
         520.17              8         334.15
         364.20              6         528.01
        1467.36              9         187.62
          39.61              2         355.21
         113.92              3         552.79
          45.98              1         643.36
         327.48              6         604.77
         639.46              8         332.52
         230.63              4         413.27
         258.04              5         395.35
         271.58              5         365.81
         522.49              5         344.30
         298.51              5         553.30
         267.43              5         489.94
         260.54              5         486.91
         923.76              8         189.35
         499.14              4         435.68
         544.65              7         211.62
         795.27              9         388.26
         194.10              4         430.61
         301.28              5         348.49
         162.41              2         318.52
         335.39              4         165.04
         401.59              5         503.30
          76.94              2         312.13
         698.13              5         167.33
         350.66              5         742.64
         888.69              7         703.94
         395.05              4        1009.91
         252.31              4         415.24
         240.02              3         338.19
         101.39              2         699.04
         117.07              2         444.13
         720.94              9         330.80
         693.34              6         337.56
         319.80              4         592.61
         554.67              7         542.78
          58.92              2         593.20
         910.62             10         222.26
          60.64              1         770.17
         420.91              3         325.79
         275.54              5         183.05
          78.55              3        1115.06
         102.29              3         427.99
         184.88              4         270.39
         569.95              5         649.36
         582.83              5         186.91
