 #HCl ZPE (DMC): 1483.743446, WWW ZPE (DMC): 15602.536472
 #E_given = DMC ZPE + 3550 =21233.1103893624.
 #Dvib = Evib - ZPE
 #D0 = E_given - Erot(W) - Erot(HWW) - Evib(W) + Evib(HWW) -E_COM,E_COM=0
 
     #Erot(HCl)     #Erot(WWW)     #Dvib(HCl)     #Dvib(WWW)             D0         #Speed
         430.41         193.31         578.35         138.57        2209.31         157.85
         398.28          56.30         469.64         196.41        2429.33         327.75
         362.35          60.83         369.83         412.22        2344.73         278.71
         401.13         297.77         310.05         265.56        2275.46         215.13
         397.49          12.85         100.21         839.72        2199.70         129.28
         381.45         140.20         337.67         390.77        2299.84         280.50
         388.40           1.08          45.94         891.74        2222.81         157.62
         362.84         258.49          60.55          28.80        2839.29         523.54
         347.78         182.55         152.87         572.98        2293.77         252.12
         377.68         422.13         217.30         218.20        2314.66         268.37
         499.34         124.15          60.73         340.64        2525.11         399.87
         512.41         207.55         129.56         117.08        2583.36         427.56
         355.37           9.05         369.59         516.73        2299.22         261.59
         362.92          28.14         142.14         737.82        2278.92         216.26
         339.67          62.85         173.79         721.20        2252.46         215.34
         359.36         162.91         159.90         599.30        2268.50         215.62
         350.22          28.94         906.10          11.19        2253.52         209.83
         411.36          96.32         147.51         572.86        2321.91         276.87
         426.72         131.14         281.38         248.83        2461.89         342.89
         378.66          44.46         658.40          53.77        2414.69         313.46
         421.06         181.75          65.13          88.83        2793.20         500.30
         509.39         269.68         133.98         344.97        2291.92         254.02
         428.40         139.58          39.32         466.31        2476.35         357.70
         447.16         326.42          40.85         505.30        2230.22         152.84
         372.44         328.29         258.82         216.19        2374.22         309.03
         332.25          20.69         158.36         143.11        2895.54         548.19
         381.10          54.38         332.49         215.41        2566.59         406.08
         426.79         144.49         197.68         353.48        2427.52         335.23
         450.09         169.84          28.26         226.00        2675.79         458.21
         532.40         105.44          38.84         580.32        2292.97         252.61
         359.63          62.08         667.07         241.19        2220.01         157.84
         387.64          42.79         449.66         412.88        2257.01         188.85
         360.38           3.68         731.99         262.08        2191.84         142.64
         389.46         238.32         629.14          53.80        2239.24         188.37
         350.80         221.26          13.59         708.17        2256.12         224.21
         434.61          42.47         197.63         412.09        2463.16         364.23
