 #HCl ZPE (DMC): 1483.743446, WWW ZPE (DMC): 15602.536472
 #E_given = DMC ZPE + 3550 =21233.1103893624.
 #Dvib = Evib - ZPE
 #D0 = E_given - Erot(W) - Erot(HWW) - Evib(W) + Evib(HWW) -E_COM,E_COM=0
 
     #Erot(HCl)     #Erot(WWW)     #Dvib(HCl)     #Dvib(WWW)             D0         #Speed
         217.34          27.74         604.96         448.26        2251.65         181.75
         194.92          31.07         451.75         492.28        2379.92         302.49
         149.96         398.02          32.79         187.20        2781.98         499.91
         214.94          43.15          86.72         349.11        2856.06         525.39
         217.47         422.06         179.31         450.20        2280.92         199.67
         148.60         103.51         448.61         330.56        2518.69         378.66
         188.04          52.49         153.37         875.34        2280.72         218.23
         173.07         155.16         369.51         430.71        2421.50         336.17
         254.06         148.09         545.20         330.54        2272.09         229.08
         206.67          15.02         916.04         168.89        2243.35         191.66
         161.23          42.13         583.11         352.47        2411.02         323.00
         172.19          93.73         174.90         804.99        2304.15         245.15
         165.25         127.19         129.70         817.98        2309.84         239.80
         219.01         351.30         145.73         489.94        2343.98         276.17
         225.18         238.02         423.44         463.65        2199.68         174.45
         204.62         109.04         142.50         178.52        2915.29         559.50
         173.43          67.39         621.64          33.55        2653.95         448.66
         150.69          13.22         182.08         979.43        2224.55         155.27
         150.75         305.61         172.54         700.58        2220.50         207.47
         260.75          26.46         336.90         542.35        2383.52         309.35
         252.57         224.69         294.74         448.27        2329.68         267.10
         176.30          74.70         444.11         392.42        2462.42         349.98
         219.58         228.66         292.91          18.34        2790.48         500.24
         183.85          30.68          34.09         909.64        2391.68         303.48
         150.35         208.13         132.41         624.67        2434.41         345.78
         237.19          53.11         157.84         828.72        2273.10         220.60
         153.86          83.49         161.56         857.94        2293.13         262.04
         163.43         158.88          55.02         460.58        2712.06         483.81
         182.82         145.19         185.00         402.77        2634.18         444.83
         251.37         101.01         141.97         827.19        2228.41         179.27
         209.75         222.00         520.57         378.01        2219.63         165.60
         197.30          21.01         158.96         958.21        2214.50         152.14
         283.03         131.64         371.82         425.35        2338.14         265.89
         194.43          59.03         156.28         847.30        2292.92         237.69
         198.84          53.08         180.74         535.58        2581.73         411.22
         144.55          81.71         619.20         291.38        2413.11         321.16
         162.85         190.14         243.61         353.87        2599.50         424.38
         206.87          12.92         167.98         500.88        2661.30         456.61
         203.44          76.47         437.91         454.33        2377.83         302.63
         200.35         104.40         392.09         435.03        2418.11         346.56
         144.73         146.65         546.68         270.46        2441.44         347.57
         221.71          17.65         389.00         173.71        2747.86         497.51
         166.55         659.25         189.80         166.53        2367.83         300.69
         266.45          37.39         430.61         421.81        2393.71         309.55
         189.33           3.02          69.79         937.68        2350.12         277.49
         189.82          81.31          73.10         874.21        2331.54         269.67
         210.42          47.57           4.52         982.44        2305.00         238.36
