    #Hard_water    #Hard_water    #Hard_water
   #Erot(W)cm-1             #J    #Speed(m/s)
          44.01              1         437.17
         491.82              6         418.76
         327.30              3         652.30
         125.63              2         471.17
          92.58              2         289.93
         373.49              4         222.53
         139.16              2         630.08
         365.72              5         699.59
         141.50              2         205.10
         251.02              4         753.62
         625.43              5         566.00
         232.19              3         176.72
         544.80              7         412.92
         108.10              3         443.75
         720.53              5         592.66
         947.13              8         701.06
         163.11              3         546.30
         877.14              7         578.71
         460.81              6         407.55
         585.40              7         414.37
         218.96              3         160.60
          37.11              1         451.80
         486.34              3         227.30
         733.40              6         563.63
         402.11              6         605.87
         549.99              5         406.07
         258.56              3         584.60
         234.82              4         657.93
          53.21              1         716.09
         594.07              7         501.71
         558.01              7         362.83
         875.90              8         542.80
         269.54              2         454.15
         487.42              6         513.95
           4.78              0         465.29
         506.86              6         542.19
          55.89              2         222.50
         693.93              8         835.48
         597.73              8         249.89
         338.65              4        1021.51
         225.13              4         816.40
         406.66              6         410.61
         662.71              6         630.93
         102.56              2        1019.81
         274.69              5         422.80
          43.37              1         502.76
         744.64              6         354.75
         457.89              5         186.35
         118.07              3         466.05
          29.17              1         693.52
         167.75              3         607.78
         400.38              6         209.86
          51.21              1         699.58
         157.97              2         545.80
         214.50              3          92.45
         274.93              4         503.10
         324.03              4         613.92
         850.85              6         871.61
         250.48              4         294.71
         303.04              4         311.75
         276.85              5         484.38
         641.80              5         731.79
         153.23              4         443.15
        1451.79              7         604.59
         160.84              3         712.47
          74.97              2         592.56
         134.75              3         457.01
         131.59              2         190.85
         289.41              5         368.73
         567.63              7         316.96
         452.42              5         265.44
         123.07              2         233.04
         148.57              3         569.77
         167.63              2        1016.08
          66.21              2         605.72
         280.42              5         223.30
         111.95              2         474.31
         224.91              3         369.28
         761.70              8         430.90
         671.80              7         452.39
        1310.56             11         752.33
          11.34              1         156.17
         171.48              4         932.90
         121.44              3         546.70
         392.63              4         313.36
         289.14              4         402.30
         500.39              6         225.93
         137.86              3         958.86
         187.41              4         105.86
         163.14              3         318.34
         227.99              4         733.73
         273.87              4         879.49
         126.98              2         951.02
         702.41              4         699.69
         276.12              4         201.74
         890.81              9         431.89
         236.43              2         903.46
         178.84              4         193.02
         906.63              6         132.12
        1643.26              7         378.23
         501.73              6         523.30
         703.95              7         632.34
         234.02              3         348.62
         106.57              3         345.70
         780.62              7         600.23
         151.48              3         441.79
         310.29              5         421.15
         215.04              2         209.45
        1375.42             13         759.22
         356.02              6         798.81
         442.43              6         370.23
         401.68              4         420.35
         116.77              3         588.75
         600.08              6         569.81
          32.44              1         840.35
         250.87              4         461.72
         235.22              3         747.74
          89.74              2         803.11
         210.77              4         429.36
         106.55              2         524.74
         664.53              8         121.42
         792.00              6         376.44
          76.50              2         416.50
         154.99              3         400.69
          18.15              1         378.00
         376.43              5         905.28
         158.21              3         482.41
        1849.63              9         365.36
         252.68              4         515.20
         194.79              3         640.37
         185.23              4         454.79
         400.15              7         557.41
         131.66              2         693.47
         352.12              4         243.79
          56.02              2         255.67
         376.28              3         711.96
         210.44              4         270.91
         454.61              4         388.55
         270.88              3         311.03
          85.27              2         567.97
          40.63              1         531.13
         259.94              4         716.73
         368.59              5         627.40
         169.45              3         392.25
          29.13              1         280.76
         280.79              3         695.24
         530.51              5         630.79
         580.85              6         390.73
         281.12              3         514.50
         213.31              2         548.27
         239.18              3         140.73
        1120.22              9         477.76
         230.80              3         355.46
         364.94              6         316.44
         467.97              6         596.97
         352.56              5         280.48
         652.68              6         563.96
         363.09              4         265.41
         628.42              7         230.01
        1256.63             12         440.80
         395.79              5        1125.44
         306.38              4         607.82
         272.20              3         227.29
         365.29              5         248.75
         926.58              9         396.02
         968.29             10         257.16
         627.37              8         282.78
         140.50              3         322.43
         524.54              5         578.46
          16.63              1         593.67
         174.24              4         372.35
         388.96              5         254.38
        1814.29              9         225.75
         266.11              4         546.25
          64.92              2         148.71
         340.07              4         474.67
         132.21              2         426.77
         285.11              3         273.64
        1131.48              8         318.43
          38.90              2         729.32
         860.58              8         549.92
         802.18              9         429.75
         255.86              4        1023.54
         647.37              8         868.87
         456.16              6         223.29
         535.46              4         697.51
         228.53              4         200.36
         473.34              5         431.74
         281.98              3         316.83
         633.94              6         329.94
         305.02              4         447.57
         176.13              3         405.36
           7.05              0         475.47
          21.68              1         489.49
        1055.82              9         223.23
         188.82              3         466.51
         243.04              3         253.22
          81.39              1         216.23
         557.45              5         279.97
         121.85              3         646.02
         304.02              4         106.23
          42.98              2         389.93
         668.45              7         404.20
         201.86              3         426.15
         111.36              3         717.63
         407.93              4         483.14
         288.72              4         500.09
         373.12              6         559.03
         232.98              4         712.49
          92.22              2         602.47
         188.09              4         278.62
         337.59              6         274.93
         972.73              8         961.93
          27.06              1         440.03
           5.62              0         248.10
         307.38              4         809.53
         793.27              6         555.99
         563.00              6         447.90
         258.18              4         466.31
         203.96              4         911.06
         563.59              7         704.09
         490.76              4         414.67
          49.25              2         324.77
         451.26              5         342.93
         195.51              3         204.46
         370.51              5         193.07
        1192.93              8         634.31
         386.38              4         522.60
          84.74              3         549.62
        1137.53              8         282.01
          85.46              2         283.93
          17.31              1         328.67
         695.07              9         410.05
         211.52              2         241.37
         970.18              6         602.18
         459.80              5         599.23
         231.41              4         463.59
         595.75              5         751.73
        1087.77             10         497.14
         304.38              2         382.19
         809.36              5        1006.94
          97.97              2         509.76
         455.00              4         360.52
         153.46              3         647.62
         226.29              4         467.41
         640.23              6         460.01
          44.85              1         459.28
         840.54              8         721.84
         177.57              3         233.52
         149.54              3         499.22
         358.78              5         687.05
          99.90              2         461.00
         162.59              3         597.30
         267.60              4         692.72
         555.90              6         212.12
         454.62              6         268.54
         513.32              6         464.71
         626.94              6         836.76
         419.11              6         464.27
         625.43              6         367.20
         324.71              4         650.30
          44.45              1         989.08
         230.47              4         412.14
         555.49              5          97.31
         609.30              6         474.98
         984.79              7         480.84
          42.09              2         299.47
          64.46              1         605.26
        1329.27              7         335.78
         169.97              2         323.97
         104.20              3         319.53
         104.24              3         835.52
         133.66              2         432.30
         322.36              5         154.13
         147.27              3         587.17
        1150.16              8         171.59
         547.06              5         153.77
         307.23              4         264.31
          80.88              2         388.40
         622.76              5         342.42
         155.83              3         686.47
         294.70              5         440.51
         909.47              6         163.77
          42.38              2         762.70
          47.91              1         681.01
         150.80              3         538.35
         141.53              4         452.01
         864.67              6         502.17
         138.78              4         376.88
         470.36              5         456.29
         257.11              3         686.98
         399.12              5         327.85
         277.93              5         347.29
         281.02              5         275.08
         342.89              6         349.86
         553.21              7        1028.84
         834.76              7         316.38
         624.00              5         459.13
         230.52              3         826.55
         289.31              5         453.91
         558.54              6         472.98
         210.67              4         274.93
          39.10              1         658.37
         297.95              5         927.82
         224.35              4         304.18
         141.63              2         373.07
         189.84              3         606.48
         320.65              4         322.07
         251.16              3         511.61
         637.03              7         228.17
          79.81              2         437.77
          24.32              1         462.98
         628.90              5         403.28
         281.87              5         370.59
         194.01              3         344.94
         148.10              3         513.09
         523.16              4         467.63
         291.90              5         433.08
         115.11              2         869.33
         315.72              3         278.96
         307.27              5         351.53
         259.53              3         445.83
         408.34              5         596.99
         166.29              2         499.45
         179.88              4         542.02
         430.22              4         438.82
          54.75              2         845.53
         260.44              4         455.71
          60.12              2         469.81
         854.84              8         227.80
          44.58              2         540.35
         694.54              7         341.84
         154.32              3         485.10
         168.75              3         447.68
         501.88              6         399.43
         230.85              2         511.02
         209.44              4         233.45
        1277.86              8         526.73
         289.90              4         654.41
         751.84              8         654.50
         397.41              5         493.65
         149.87              3         788.36
          68.07              2         640.93
         551.22              6         640.17
         561.72              7         541.71
          82.19              2          57.24
         166.02              2         291.41
         602.83              5         251.57
         166.32              2         854.68
         279.08              4         352.54
         208.54              4         439.97
         732.29              7         371.98
         145.38              2         554.18
         151.78              3         804.83
         492.12              3          98.04
         412.03              5         652.06
         473.06              5          89.29
         131.64              2         724.05
         667.54              8         345.33
         106.96              2         447.57
         156.33              3         344.18
         195.95              3         744.70
         582.86              6         301.62
        1127.10              8         223.05
         259.43              3         904.98
         510.86              5         391.07
         210.70              3         454.64
          86.28              2         235.09
          17.67              0         480.57
         212.06              4         581.00
         208.07              4         697.33
         195.72              4         593.90
         290.56              5         153.31
          72.48              2         237.20
         414.07              5         430.29
          35.58              1         212.24
         279.73              4         360.65
         365.36              5         214.74
          53.89              2         521.33
         417.82              4         388.39
         370.48              6         351.58
          76.82              2         406.23
          15.29              1         584.40
         333.12              2         143.23
         365.55              6         521.02
         261.63              4         520.15
          13.00              1         454.92
         306.60              5         591.69
         180.70              4         526.99
         162.41              3         149.07
         113.23              3         587.57
         373.32              4         578.63
         173.59              4         469.78
         213.63              3         303.56
         148.26              2         366.18
         809.65              7         627.51
         359.49              2         363.22
         157.96              3         181.52
         243.68              4         733.61
          42.00              1         402.85
          69.02              2         433.13
          14.16              0         408.89
         123.27              2         595.47
         345.00              5         497.35
         191.03              3         720.11
         535.39              5         428.99
         595.54              6         409.91
         161.98              3         412.41
          98.61              3         540.92
         175.19              4         342.40
         413.58              5         723.62
          77.15              2         455.80
         747.44              8         766.89
         124.96              3         583.19
         299.04              6         205.41
         649.00              6         151.72
         404.39              4         532.16
         179.21              3         632.45
         336.08              6         624.97
         119.14              2         559.95
         612.50              6         370.70
         900.46              8         769.30
         198.53              3         693.84
          68.61              2         170.84
         211.24              3         569.92
          69.95              2         429.95
         212.69              4         573.43
         286.17              4         273.93
         639.96              8         314.40
         102.60              2         533.86
         159.43              4         431.74
         787.90              6         408.24
         397.18              6         255.32
         351.94              4         163.06
         262.19              4         430.87
         526.69              5         651.86
         150.38              3         627.16
         218.77              4         276.62
         201.02              3         605.28
         174.41              4         547.20
         209.90              4         546.93
          14.80              1         190.05
         123.75              3         319.74
         138.47              3         486.70
         486.94              4         397.92
         199.39              3         545.21
        1355.18             11         224.60
         250.71              4         216.21
          66.50              2         669.25
         152.14              3         641.45
         325.28              5         871.95
        1080.97              8         285.72
         265.00              4         341.49
         497.33              6         783.31
         279.83              4         841.64
         219.99              2         484.55
         548.08              8         965.33
         119.97              3         807.73
          89.79              2         326.79
         118.16              2         344.59
         725.40              5         392.56
         385.36              5         203.84
          92.88              3         714.43
         110.30              2         460.63
        1489.62              8         834.55
         161.95              3         646.61
         155.85              3         411.20
          28.71              1         220.65
         261.97              5         469.76
         609.39              7         595.20
         325.85              4         687.43
         959.25              8         423.84
        1115.51              7        1070.73
         403.60              5         530.50
         328.97              5         589.45
         493.76              6         353.91
          20.39              1         364.88
         674.58              7         751.40
         430.50              6         250.02
         127.34              3         382.97
         383.97              5         474.27
         837.13              5         906.86
         597.27              5         501.91
         362.53              5         204.29
         755.43              6         548.42
         547.65              5         231.51
         304.28              5         867.16
         400.39              5         453.24
         402.19              4         656.72
         453.60              6         681.85
         560.05              6         342.32
         508.07              5         840.02
         238.04              4         397.57
         551.72              7         354.75
         147.60              4         633.97
         571.63              6         534.38
          62.67              1         519.16
         377.19              4         289.40
         306.60              5         523.20
          70.53              2         552.09
         167.12              4         465.36
         344.68              4         604.35
          51.36              2         553.59
          62.30              1         243.89
         744.40              8         903.94
         275.67              4         172.10
         728.55              6         535.13
         368.88              5         265.55
          49.45              2         850.14
          11.92              0         742.29
         109.07              3         496.36
         562.96              7         224.64
        1650.94              9        1104.34
         206.05              4         413.77
         279.07              4         687.42
         658.13              6         246.59
         351.68              3         481.47
         165.18              3         308.15
         108.12              2         887.99
         102.44              2         415.93
         145.39              4         708.19
         198.30              4         386.30
         160.99              3         409.60
        1484.03             10         378.42
         140.71              4         264.40
         992.32              9         729.05
         261.49              3         525.39
         148.54              3         404.52
         616.74              5        1069.10
         385.15              3         400.88
        1812.44             10         197.24
        1631.57              8         226.51
        2156.51             12         232.72
         916.21              7         306.20
          14.77              1         457.12
         119.32              3         597.61
          53.12              1         614.46
         431.84              6         649.30
         817.98              8         570.82
          16.06              1         125.29
         352.96              6         624.35
         399.44              5         432.89
         425.99              6         266.86
         757.72              8         486.49
          43.60              2         243.18
         608.70              6         753.85
          54.73              2        1015.18
         266.64              4         304.76
          69.78              2         383.76
          11.70              0         378.71
         214.36              3         183.47
        1130.53             11         312.14
         123.90              2         311.33
         175.29              3         335.18
        1282.04              9         272.65
          59.03              2         130.10
         360.23              4         449.97
         488.40              5         707.14
        1274.70              9         592.56
         565.09              8         541.93
         414.49              6         723.01
          60.60              2         227.13
         601.66              7         668.35
         251.47              5         631.60
          95.24              2         713.41
         225.05              4         561.67
         536.02              6         329.53
          58.45              2         428.81
         195.73              4         468.78
         535.66              6         263.96
         573.90              6         270.65
          60.61              1         332.73
        1187.25              8         516.44
          92.28              2         248.85
         215.19              4         499.25
         109.87              3         447.93
         466.13              5         628.77
         121.51              2         595.62
         154.33              2         405.29
         356.66              5         532.15
          91.81              2         834.73
         589.58              5         510.01
         398.57              5         431.53
         141.77              3        1048.79
         412.26              5         638.66
         824.39              7         441.26
         220.47              4         400.11
         338.95              4         311.12
         724.57              7         795.07
          96.84              2         443.88
         660.83              7         210.42
          95.82              2         594.95
          38.61              1         345.17
         455.79              4         533.47
         419.14              5         562.37
          87.31              2         464.79
         218.87              4         271.05
         192.54              3         501.19
         509.37              3         337.27
         338.35              4         848.73
          17.99              1         475.97
         486.88              5         933.05
          75.99              2         202.94
         752.91              9         600.91
         732.99              6         641.44
         333.24              5         694.75
         123.13              3         581.01
         186.93              2         417.09
         124.42              3         633.26
         459.12              6         465.85
         537.23              4         487.91
         729.39              7         572.09
          52.88              1         317.49
          64.50              2         282.51
        1235.43              8         955.01
         620.80              6        1187.72
         849.59              8         742.67
        1178.13              8         557.01
        1480.41              8         359.36
         133.53              4         210.74
        1495.86             11         431.75
         335.55              4         582.22
         237.29              4         321.38
         471.68              5         753.16
         513.61              5         303.93
          87.93              2         702.57
        1075.90              7          63.91
         142.61              2         255.94
          28.04              1         584.66
         248.42              4         315.20
          95.54              2         252.11
         152.24              3         377.07
         179.98              4         334.66
        1408.07             11         507.29
         548.58              7         457.41
         374.15              3         392.78
         228.37              4         208.52
         149.47              3         886.49
        1281.78              7         560.76
         712.57              8         790.81
         502.42              5         501.02
         604.58              5         473.61
         367.73              3         419.52
         448.47              4         392.95
         698.90              7         622.54
          74.10              2         321.93
         345.23              6         414.62
         305.40              2        1044.44
          77.13              2         799.22
         167.65              3         550.15
          25.72              0         456.91
         428.52              6         420.91
         673.59              7         412.86
        1245.04             10         494.79
         290.92              3         603.81
         329.59              3         681.52
          99.44              2         773.39
         170.69              4         486.95
         106.43              3         379.18
         160.99              3         465.15
         276.38              3         840.78
         963.29              9         653.12
         104.97              2         616.18
         200.03              3         650.20
        1057.75              6         708.63
         646.90              6         730.89
          96.86              2         748.82
         314.02              3         458.28
         307.67              6         470.65
         241.79              4         520.89
         522.57              7         226.38
         603.05              6         415.57
         509.92              7         469.64
         245.22              3         432.16
         645.22              5         789.72
         384.57              5         453.92
         327.93              5         409.52
         154.35              3         807.28
          92.45              2         720.20
         302.99              4        1234.01
         317.78              5         398.32
          47.69              2         446.54
         219.01              5         701.71
          59.92              2         329.82
         117.39              3         317.01
          91.18              2         362.89
         431.51              6         452.48
         391.05              4         210.31
         522.05              5         500.82
         567.46              6         330.99
         363.13              5         672.15
         474.22              5         404.88
         190.67              3         202.95
         603.35              7         426.14
         849.24              7         238.02
        1207.14              9         488.76
          45.58              1         362.75
        1443.02              7         525.56
         282.99              4         460.97
         890.27              8         330.12
         145.54              2         616.06
          91.97              2         247.85
         655.34              7         581.59
         197.71              2         779.45
         485.51              7         245.92
         381.27              4         698.55
         173.56              4         252.44
         418.57              5         535.57
          69.09              2         548.30
         594.32              8         399.13
         286.33              5         549.06
         630.64              6         765.96
         218.34              3         404.12
         109.43              2         714.79
         113.11              2         303.66
         345.08              4         226.95
          21.64              1         489.88
         384.02              5         467.96
         410.07              4         620.24
         428.93              6         260.43
          97.14              2         267.49
         560.89              5         392.83
         220.74              3         290.74
         611.00              7         394.14
         133.38              3         573.48
         234.24              3         650.63
        1366.03             10         381.39
         208.45              4        1104.06
         220.47              4         644.38
         474.44              4         302.93
         566.50              6         843.52
         244.89              4         352.58
         183.34              4         274.46
         507.79              5         599.63
          68.54              2         455.22
         156.78              3         435.77
         623.00              8         177.46
         790.84              8         772.57
         224.36              3         402.48
         672.10              6         742.67
         796.73              5         408.88
         405.15              6         170.57
         279.58              3         466.19
         360.12              5         499.63
         268.79              5         759.62
         629.07              5         680.97
          40.15              2         341.18
         305.72              3         369.15
         339.30              5         993.94
         629.31              8         479.82
         247.19              4         694.33
         721.77              5         331.77
         387.74              4         467.25
         307.29              4         413.77
         450.85              5         219.60
          75.29              2         482.62
         436.78              5         323.34
         257.03              5         714.78
          45.65              1         386.80
         376.77              6         273.20
        1068.44              7         498.06
          10.31              0         484.15
         453.13              3         814.86
         357.32              5         395.67
         745.09              6         295.95
         424.12              5         687.79
         194.13              3         686.73
         421.70              5         680.70
         228.07              3         459.80
         180.12              3         254.10
         428.42              5         500.90
         358.30              4         706.53
         406.78              6         238.55
         586.67              7         395.44
         382.60              5         386.56
         131.58              3         293.19
         452.74              6         636.98
         658.66              6        1267.73
         629.13              7         479.27
         350.01              6         378.98
         532.24              6         256.71
          92.17              3         573.70
         465.36              6         294.34
         109.35              2        1014.91
         297.34              5         775.11
         381.30              5         742.23
          42.49              1         459.36
         355.85              4         176.16
         262.38              5         255.63
         183.29              3         532.10
          90.01              3         269.68
         446.45              5         236.78
         419.17              4          44.65
         270.55              5         465.36
          44.76              1         469.54
         658.62              8         623.76
          28.23              1         410.53
         201.49              3         429.04
         160.48              3         459.69
         157.82              4         161.08
         706.05              4         255.28
         158.74              3         415.18
        1096.95              8         390.62
         213.44              3         768.21
         158.07              3         852.61
          42.29              1         758.81
         617.77              7         225.27
         136.38              3         895.85
         545.77              7         465.47
         679.81              6         399.61
         504.39              6         642.23
         524.22              6         526.47
         783.43              7         377.35
         222.16              3         444.86
         398.52              6         377.93
         197.96              2         300.87
         469.81              6         489.31
         164.02              3         444.66
          77.16              2         449.73
         762.26              8         495.42
         366.77              6         348.40
         261.49              3         559.04
         154.01              3         730.21
          36.47              2         532.26
         465.45              5         536.78
         487.60              3         423.62
         232.70              4         399.06
         167.68              4         526.41
         395.38              5         372.75
          50.99              2         630.34
         362.06              5         334.04
           1.22              0         373.73
         358.15              6         174.38
        1501.67             12         450.69
          76.65              1         173.13
         431.47              4         856.95
         467.63              5         652.29
         174.47              3         467.89
         171.15              4         230.19
          81.72              2        1052.50
         567.29              5         298.98
         235.67              3         636.03
         336.10              4         305.98
         602.84              6         756.07
         601.15              5         714.39
          12.37              1         418.23
         279.49              5         134.15
          53.13              1         350.99
        1045.47              6         680.58
         438.87              3         223.53
         109.68              2         485.84
         300.67              3         591.98
         364.69              4         609.55
         265.05              3         559.09
         180.55              3         530.25
         388.20              5         542.64
         185.76              4         235.24
         230.50              3         404.88
         531.82              5         444.30
        1100.16              7         362.33
         150.70              3         532.50
         977.52              6         485.52
         532.23              3         461.57
          78.44              2         419.51
         146.48              3        1152.08
         470.48              5         378.82
         290.71              4         683.20
         450.96              6         678.42
        1260.16              7         319.06
         266.77              4         250.30
         236.82              3         325.43
         610.43              5         736.50
          92.42              2        1178.55
         249.33              4         871.92
          76.35              2         404.41
         634.12              7         624.00
         158.18              3         230.03
         186.06              3         612.25
        1613.60              7         417.58
         302.45              5         313.35
         331.42              4         609.51
         488.48              5         453.08
         621.12              8         702.24
          70.76              2         746.60
         331.16              4         279.37
         149.12              3         512.00
         233.88              4         328.12
         458.60              7         576.94
         757.72              5         554.00
         310.77              6         837.12
         954.34              8         380.18
         154.05              3         821.72
         308.59              5         291.69
          83.71              2         434.85
         326.10              5         337.96
         291.49              4         369.54
         232.56              3         506.45
         254.66              2         278.55
          80.57              2         497.77
         538.48              6         146.08
           6.46              0        1083.21
         645.09              8         575.15
         504.65              6         738.07
         118.38              3         211.27
         251.74              4         321.58
         530.97              6         677.02
         288.77              5         548.34
         466.31              5         452.19
         723.68              6         592.25
         249.33              4         830.21
         658.38              6         226.58
         248.34              4         292.77
         458.13              4         685.45
         183.15              4         423.39
         103.77              3         313.83
         323.84              6         519.73
         403.73              6         242.29
         987.01              7         301.24
         275.48              4         318.45
         584.52              6         697.61
         703.95              6         347.84
         171.53              3         446.70
         222.54              4         549.29
         321.48              6         510.28
         191.72              4         268.29
         538.42              6         415.79
         123.11              2         207.44
         453.46              4         264.33
         935.32              9         318.68
         996.85              8         503.75
         821.78              4         551.35
         854.25              6         404.61
          75.25              2         345.82
         148.42              3         247.21
          77.11              2         510.03
         204.15              4         405.57
         513.08              6         783.45
          88.71              3         302.45
         570.55              6         600.27
          60.29              1         553.21
          29.14              1        1001.92
          57.11              1         539.46
         157.09              3         327.05
         579.25              8         319.67
         392.73              5         210.44
          98.77              2        1111.14
         168.94              4         421.91
         198.99              3         735.25
         117.74              3         574.95
         771.25              6         491.83
         399.98              5         292.94
         579.01              6         740.46
         874.07              8         367.82
        1176.55              9         313.81
          55.98              2         609.97
         359.66              4         366.73
         247.16              4         358.99
         105.83              2         554.66
         139.50              2         181.45
          71.01              2         238.82
         249.34              5         342.54
         349.82              4         380.62
         164.65              3         764.48
         419.62              5         218.48
         357.89              4        1080.75
         320.06              2         553.62
         103.85              3         309.34
         329.51              4         817.95
         383.46              4         505.17
         565.12              7         540.22
         300.53              5         562.19
         348.27              4         451.48
          83.79              2         236.16
         961.09              8         331.05
         512.76              8         418.60
         170.68              4         281.97
         250.18              4         791.53
         494.96              7         492.54
         396.25              4         587.79
         205.06              2         483.85
         150.13              4         763.51
         527.05              5         219.20
         682.79              5         670.55
         619.52              5         524.60
         426.56              5         281.10
        1817.77             13         401.35
         228.37              3         372.62
        1342.73             10         678.40
         206.65              4         101.86
         392.19              5         292.05
        2084.14             13         513.70
          63.33              2         405.38
         455.66              6         361.60
          97.64              3         656.72
          55.35              2         604.73
         787.99              7        1150.32
         155.59              2         302.29
         359.03              2         283.36
         782.19              8         936.69
         473.27              4         289.50
         480.79              6         303.42
         239.25              4         194.22
         237.21              4         284.55
         277.40              5         453.91
          38.09              1         402.58
          43.60              2         376.63
         199.26              2         333.05
         227.27              3         315.79
         475.70              6         305.56
         199.50              3         576.48
         111.42              2         569.46
         203.87              3         305.75
         332.96              4         520.72
        1155.18              8         679.63
         677.09              9         399.14
         312.85              5         649.29
         249.84              3         391.22
          89.15              2         362.57
         129.93              3         530.19
         428.80              4         570.90
         318.63              6         184.72
         194.31              2         566.15
          15.35              1         268.24
         301.64              4         994.52
         318.62              4         694.13
         931.53              7         264.22
         374.99              3         310.09
          44.81              2         134.22
         560.39              5         887.67
         884.30              6         347.23
         287.20              4         620.22
         139.64              2         226.43
         246.89              4         513.78
         365.36              5         624.74
         963.70              7         225.41
         321.48              4         753.29
         632.39              5         402.94
          45.53              2         549.20
         138.05              3         270.11
         230.17              3         553.34
         144.99              3         181.60
          73.60              2         309.20
          55.84              2         721.20
         219.47              4         350.95
         291.18              5         344.58
         212.07              4         362.84
         550.32              6         367.33
         498.94              6         355.07
         467.28              7         424.04
         230.71              4         696.73
         992.58              8         522.59
         513.65              5         281.81
        1239.34              9         393.16
         609.94              8         675.02
          95.51              1         238.01
         798.66              7         828.41
         299.90              4         387.53
         346.93              5         598.26
         327.88              5         343.49
         134.54              4         833.05
         498.30              5         899.20
         422.82              5         580.29
          37.76              2         441.59
         867.04              8         279.52
         249.57              4         515.22
          53.94              2         356.49
         234.31              4         469.58
         418.76              5         370.50
         118.51              3         468.59
          33.16              1         679.69
          59.25              2         491.31
         856.17              6         332.94
         486.97              5         262.82
         729.22              8         616.42
          91.05              2         321.86
         267.69              3         559.37
         547.92              5         547.09
         127.93              3         415.97
          54.23              2         272.96
         518.71              4         577.67
         435.99              5         702.63
          79.67              3         435.06
          93.54              2         790.94
         299.65              4         282.13
         734.58              9         558.70
         264.07              3         161.05
          87.48              2         360.26
         566.16              6         500.08
         108.68              2         405.73
         730.40              7         606.61
         300.20              4         506.96
         801.06              8         702.27
         169.98              3        1048.40
         281.31              4         301.00
         207.59              4         255.95
         313.28              3         274.14
         567.09              6         229.62
         143.04              3         148.23
         163.02              3         412.57
         186.32              4         510.38
         611.35              5         415.06
         322.85              3         540.71
         480.98              5         692.63
         141.96              3         271.71
         277.29              5         325.35
         476.43              7         960.78
         444.68              7         113.37
         469.23              6        1007.27
         103.45              3         110.61
         145.52              2         266.18
          49.15              2         287.74
        1201.19              8         437.10
         417.77              4         572.88
          39.67              2         225.77
         325.98              5         376.89
         575.52              5         435.72
         253.50              3         653.87
         652.61              6         355.20
         907.82              7         447.78
         973.64              7         255.52
         140.74              3         583.51
          25.71              1         529.49
          41.17              1         148.89
         373.90              5         256.34
         106.60              2         562.67
          40.45              1         284.96
         136.66              2         353.80
          82.11              2         682.27
         282.16              5         473.95
         522.97              5         407.51
         417.26              6         535.01
         210.50              3         286.07
         605.75              6         485.96
        1692.78             10         664.11
         887.34              6         780.23
        1137.73              7         177.24
        1072.70              8         728.69
         484.74              6         527.84
          41.82              1         476.94
          12.48              1         688.62
         130.82              3         512.02
         146.84              2         368.36
         401.72              5         990.45
         223.12              3         295.04
          68.08              2         315.30
          26.38              1         336.15
         197.85              3         261.67
         468.69              5         533.20
         409.55              4         532.79
         230.58              3         828.29
         806.83              8         676.61
         298.81              3         347.88
         305.50              4         299.45
          46.05              1         389.72
         241.40              3         658.52
         378.40              4         311.65
         409.98              5         454.94
         376.09              5         457.24
         589.37              6         613.97
         132.16              1         454.59
         323.49              2         326.30
         975.24              6         205.19
         135.93              3         354.85
          71.02              2         724.53
         284.54              4         259.04
         432.31              4         153.94
         281.94              4         474.58
         356.42              5         531.64
         852.91              9         605.81
         478.09              6         615.02
         144.85              3         128.83
          30.83              2         191.07
         103.31              2         176.13
         116.55              3         190.78
         591.87              7         503.80
         273.66              4         370.49
          41.50              1        1083.39
         409.28              5         155.72
         411.92              5         477.70
         636.22              6         148.40
         295.12              5         369.99
         297.93              5         645.73
         459.75              5         567.56
         361.14              5         562.93
          30.63              1         351.98
         406.44              5         452.15
         862.96              7         325.34
          77.90              2         733.69
          67.53              2         730.02
          83.89              2         429.65
         243.74              3         424.65
         445.00              5         560.68
         389.45              5         421.24
         228.66              4         311.35
         394.32              5         359.73
         196.94              3         622.98
          75.34              2         249.84
         379.40              5         254.81
         180.34              4         332.16
         348.99              4         455.66
          79.78              3         529.46
         335.49              5         135.76
         411.23              5         794.19
          47.02              1         130.59
         252.42              4         370.47
         116.73              3         202.67
         876.75              7         259.35
          86.46              3         683.84
         669.07              7         117.84
         565.54              7         763.77
         402.32              5         287.12
         333.72              4         705.87
         401.89              5        1002.36
         203.15              3         313.41
         627.29              4         455.92
         430.30              7         292.86
         401.14              4         602.65
         436.63              4         896.03
         138.41              3         721.36
         542.17              6         353.71
         313.44              4         351.35
         196.48              4         259.90
         315.15              5         493.33
         345.96              4         480.38
         277.17              5         464.77
         109.89              2         150.11
         675.73              6         511.37
          83.52              2         518.26
         357.52              5         400.10
        1346.63              9         446.84
         122.95              3         459.11
         163.29              4         472.62
         865.99              7         997.46
         270.73              3         314.67
         125.12              3         233.28
         326.86              5         225.07
          24.02              1         326.76
         251.59              5         291.52
         143.32              3         227.31
         164.99              3         312.41
         180.68              3         747.09
        1360.56             12         292.99
         248.67              4         728.30
          55.28              1         633.64
         233.08              3         368.33
         150.62              2         281.05
          50.29              2         235.28
         206.54              3         381.40
         121.95              3         298.19
         240.44              4         785.15
         294.42              3         375.58
         275.17              3         280.98
         390.32              6         727.07
         271.06              4         202.25
        1020.60              8         835.75
         426.17              5         313.98
         285.51              3        1303.74
         106.36              3         298.16
          56.78              2         142.75
         317.04              4         454.87
         647.21              8         248.99
         525.80              5         519.89
         288.69              4         532.49
         211.71              3         566.84
          41.77              1         350.16
         242.78              4         932.47
         595.00              6         209.35
         148.34              3         520.13
         841.17              8         359.97
         233.23              4         858.76
         366.78              4         621.96
         171.47              2         353.61
         797.96              7         472.49
         208.98              3        1230.81
         139.00              2         225.84
         136.05              2         927.53
         218.37              3         827.27
        1000.37              9         199.27
         666.76              6         687.81
         416.56              5         337.92
         488.60              4         729.82
         527.64              6         320.96
         663.58              6         351.28
         157.27              3         192.64
         150.39              3         179.45
          50.10              2         265.12
         126.47              3         232.42
         315.38              4         247.49
         241.26              4         369.03
         249.69              3         341.05
         831.00              8         683.64
         160.31              3         520.63
         243.35              4         704.48
         298.91              5         419.69
         142.43              2         565.47
         938.56              9         881.44
          60.88              2         928.90
         150.28              3         161.72
          80.98              2         737.03
         210.32              4         238.61
        1173.51              9         889.98
          67.06              2         603.25
         286.85              5         277.55
         416.68              4         356.67
         850.21              8         238.34
         631.46              6         493.93
        1381.22              7         469.96
         867.08              7         295.31
         173.54              3         210.40
          90.40              2         631.45
         401.29              5         261.29
         166.37              3         546.21
         122.93              3         806.86
          59.73              1         824.02
         392.83              4         475.23
         821.50              6         513.79
         160.60              3         855.89
         418.81              5         635.41
         582.32              7         229.38
        1186.88             11         466.89
         160.76              2         176.00
         116.39              2         502.55
         149.35              3         170.05
         483.76              6         138.71
        1079.35             10         572.03
         105.75              2         224.12
          45.16              2         543.60
         206.45              3         170.00
        1024.35              7         305.78
         461.39              5         660.47
         450.77              4         386.75
         388.25              5         602.63
         851.37              6         338.51
          20.09              1         509.29
          32.45              1         612.66
         116.52              3         384.54
         174.97              3         368.67
        1640.41              9         193.34
         347.22              5         658.33
         117.90              3         563.00
         209.38              4         817.31
         255.30              3         774.01
         352.57              5         329.25
          76.03              3         221.39
         626.36              8         354.13
         187.48              3         822.83
         107.54              2         144.63
         309.36              5         325.55
         411.12              6         270.45
         161.70              3         468.69
         319.36              4         185.26
         313.72              5         496.26
         125.66              2         624.97
         136.29              2         730.79
        1353.56              6         389.22
         278.41              3         547.34
         226.50              2         503.11
         128.84              2         505.20
         251.31              4         518.40
         248.45              4         439.70
         165.26              2         378.20
         152.17              2         537.23
         296.32              5         514.27
         166.18              4         288.70
         360.42              5         414.73
         191.36              4         278.91
          76.85              1         532.95
        1991.71             10         359.50
         323.50              6         536.75
         732.20              8         154.77
          22.69              1         265.16
         432.31              6        1173.07
          39.19              1         477.19
         358.17              6         354.23
         741.02              7         471.22
          25.27              1         253.00
         264.91              4         457.57
         401.31              5         272.36
         106.68              2         328.19
         430.73              6         206.13
         124.10              2         976.13
        1769.11              5         439.26
         939.24              8         557.88
         446.14              5         191.74
         443.14              5         327.74
          62.42              1         277.72
         254.36              5         244.15
        1003.79              9         379.98
         328.81              3         358.80
         758.72              7         398.15
         500.33              6         681.00
         106.74              2         618.13
         410.50              4         464.57
          81.32              2         191.78
         381.43              5         250.93
          62.15              2         300.85
        1027.26             10         199.38
         393.29              4         993.95
          65.47              2         535.34
         486.75              6         860.50
         752.97              7         679.99
         219.57              4         655.55
         885.82              9         495.01
         177.22              3         247.25
         251.56              4         588.33
         274.78              3         208.13
          15.99              1         626.58
         712.42              5         402.39
         395.22              6         578.47
          77.71              2         811.50
         844.64              8         785.63
          22.15              1         309.38
         556.12              7         243.27
        1017.52              8         532.42
         629.95              7         795.94
         102.78              2         660.53
         100.63              2         341.07
         324.15              6         661.44
         231.72              4         753.61
         679.12              5         476.05
         430.54              5         220.04
         383.41              5         479.32
         236.38              4         290.28
         187.75              2         631.85
          42.42              2         176.17
         380.52              6         541.09
         183.48              3         216.60
         132.55              2         632.23
         201.54              3         453.25
         225.84              3         557.68
         559.30              6         295.41
         269.52              4         540.91
         136.51              3         703.32
         594.53              5         276.76
         110.67              3         570.90
         154.30              3         485.50
          46.08              2         548.37
         584.77              5         569.40
         306.44              4         781.49
         193.16              3         631.42
         260.98              4         282.98
         427.81              5         672.60
         155.43              3         699.62
         255.98              5         355.84
         590.88              5         334.37
         290.35              4         556.40
         324.02              4         690.10
         360.78              5         587.66
          40.61              1         257.69
          46.51              2         160.97
         463.90              7         579.84
         656.16              5         747.94
         187.53              3         287.42
         299.74              4         562.73
         119.43              3         757.41
         108.09              2         365.62
         192.62              3          57.57
         308.29              5         719.18
         567.60              8         626.61
         449.57              5         744.86
         233.91              4         480.42
         195.83              4         912.51
         544.52              5         544.68
         182.84              3         339.74
         263.34              4        1059.35
          94.69              3         219.51
         244.45              4         402.16
         125.72              3         492.70
         373.03              5         479.66
          63.51              2         469.93
         384.46              4         529.28
         749.80              6         639.23
         165.44              2         162.44
         285.59              4         570.40
         320.62              5         387.19
         234.74              3         509.47
         731.68              8         528.44
         305.42              3         899.93
         853.44              8         191.39
         123.73              2         453.25
         582.75              6         484.45
          68.64              2         398.21
         380.58              3         461.43
         854.01              7         708.77
         382.52              6         704.63
          67.43              1         408.94
         455.00              6        1002.47
          55.20              1         389.06
         506.77              5         421.46
         162.81              3         313.83
         639.82              8         293.55
         202.57              3         468.90
         651.07              6         254.98
          85.93              2         369.46
        1197.30             10         500.19
         506.57              7         171.48
         366.73              6         354.20
          37.77              1        1285.83
         227.15              3         518.15
         769.31              8         165.26
         402.39              6         538.94
         124.37              2         722.03
          75.50              2         315.77
         557.25              5         680.80
         410.20              4         298.70
          75.29              2         499.08
          65.26              2         697.15
          64.74              2         224.63
          53.74              1         272.53
         903.09              7         259.23
         293.61              4         285.79
          37.86              1         624.47
         955.67              7         275.70
          61.50              1         389.28
         533.60              6         243.58
        1015.64             11         457.92
          72.84              2         366.49
         422.76              6         376.12
         154.48              3          59.11
         509.94              5         785.43
         398.86              4         389.87
         205.16              3         446.80
         854.31              7         375.52
         335.00              5         408.59
         160.14              4         457.77
         293.97              5         132.09
         112.47              2         203.10
          34.62              2         436.90
         505.68              6         311.26
         176.09              3         565.85
         379.03              4         775.92
         418.67              4         683.44
         466.92              5         239.40
         231.11              4        1118.26
         442.63              6         171.20
          61.67              1         148.48
         291.23              5         398.14
          88.72              2         653.97
         346.08              5         530.08
         243.31              4         245.69
         251.63              3         882.89
         566.36              7         675.19
         519.09              7         326.38
         443.01              4         709.46
         804.32              6         383.10
          28.71              1         708.40
          85.13              2         421.97
         425.06              7         525.46
         262.12              4         256.70
         766.56              8         366.07
          94.39              2        1132.48
         305.34              4         450.84
         217.45              3         338.35
         161.30              3         582.15
         648.35              7         629.20
          97.68              2         337.36
         376.86              5         887.03
         579.45              5         284.98
          55.74              2         495.58
         242.79              4         273.34
         222.81              3         384.33
         450.95              6         539.01
         369.11              4         613.68
         731.26              7         702.03
         167.73              2         469.29
         223.30              3         541.33
         436.37              4         504.02
        1151.85              8        1014.42
         133.12              2         378.79
          94.24              3         409.58
         373.92              5         500.91
         135.85              3         478.60
         245.21              5         591.75
         317.15              4         193.92
         946.02              9         569.31
         166.36              4         198.26
         330.22              5         537.57
         532.07              6         565.83
         197.47              3         349.46
          94.35              2         251.10
          43.52              1         303.08
        1194.49             11         364.32
         892.51              8         546.72
          91.32              2         486.56
          42.81              2         207.10
         218.45              5        1118.35
          97.43              2         759.97
         287.28              3         377.89
         381.33              5         222.37
          11.66              1         371.59
         971.80              5         510.64
         142.88              2         216.37
         114.05              3         397.90
         290.13              3         239.46
         467.09              6         253.90
         659.12              6         371.29
         250.38              3         438.32
         657.98              6         759.85
         198.61              3         678.29
         825.16              8         499.09
         285.35              4         316.28
        1296.59              6         295.20
          42.69              1         550.52
         104.58              2         405.58
         100.56              2         529.57
         105.93              3         327.28
          52.44              2         606.58
         137.35              3         512.32
         359.37              4         727.86
         437.24              5         696.63
        1021.55              9         260.48
         294.33              5         803.13
         490.40              6         624.81
         915.06              8         392.09
         348.95              5         363.41
         504.89              6         748.29
         582.28              5         352.01
          85.58              2         525.65
         399.55              6         555.34
         218.70              4         780.61
          39.61              1        1140.97
         314.18              3         559.04
         371.74              4         391.18
         249.15              3         418.36
          78.49              2         836.02
         417.35              5         214.90
         385.47              6         168.00
         110.79              2         224.35
         393.43              5         637.93
          24.64              1         554.88
         364.05              5         172.89
         106.67              3         347.71
         251.60              4         436.75
         678.50              5         332.12
          83.99              2         318.08
         394.84              6         295.39
         172.64              3         126.15
         261.82              5         629.78
         270.90              4         414.96
         248.75              3         559.89
          27.05              1         352.50
         657.85              5         707.37
           7.77              0         324.62
         806.30              6         267.54
         605.48              7         294.88
         672.79              4         610.25
         190.01              3         316.18
         155.59              3         569.55
         167.97              2         481.76
         358.12              5         887.85
         677.55              5         542.93
         529.99              5         462.14
        1100.83              6         391.80
         239.79              4         348.39
         186.75              3         334.39
         102.04              2         554.94
          27.48              0         157.90
         826.75              7         457.69
         272.80              5         242.45
         858.03              7         541.89
         160.66              4         635.15
          37.51              2         334.81
         371.02              5         159.76
         129.14              3         261.79
         237.61              3         378.53
         307.35              5         152.19
         391.84              5         694.98
         993.04             10         518.74
        1091.91              8         463.71
         170.41              4         242.99
         665.16              6         133.02
          89.77              2         291.44
         215.09              4         598.78
         769.13              8         570.15
         201.88              3         607.07
         557.91              6         595.80
         681.00              4         515.81
          36.37              1         368.83
          93.91              3         215.23
         670.21              6         786.66
         710.78              7         277.76
         222.98              3         433.70
        1524.40              9         628.67
          52.06              1         401.98
          85.09              3         469.28
          24.32              1         521.32
         227.43              4         555.55
         354.59              6         390.40
         601.51              6         387.87
         977.33              7         447.74
          74.26              1         140.28
         102.33              1         617.02
          37.72              1         756.33
         661.73              5         645.67
         269.25              5         321.94
         113.71              2         415.75
         340.65              5         501.37
         293.31              4         475.28
         260.33              3         474.11
         118.49              2         786.30
         246.45              4         227.54
         317.23              3         338.13
         247.14              4         211.91
         184.20              3         142.89
          10.97              0         665.56
         253.94              3         911.48
         190.07              4         195.21
         132.53              3         413.02
          75.46              2         314.41
         470.37              5         152.81
          28.96              1          76.92
         447.00              4         495.65
         368.44              4        1076.92
         147.78              3         505.69
         412.34              5         237.46
         312.22              4         753.75
         671.88              8         551.86
          41.51              2         271.53
         476.28              6         837.55
         324.42              5         581.85
         390.87              5         529.03
         324.44              5         172.10
          63.84              2         255.39
         287.78              3         752.55
         404.67              4         224.95
         495.31              6         359.89
          94.26              2         492.73
          45.88              1         586.89
         311.84              3         518.41
         910.45              8         364.23
          89.79              3         598.10
         298.48              4         562.86
          93.00              2         371.81
         337.03              6         486.25
          80.93              1         460.23
         210.41              3         673.51
         251.79              4         292.23
         939.66              8         574.01
         271.69              4         366.50
         684.24              8         284.62
         531.74              7         574.26
         129.77              2         585.81
         383.80              5         458.48
         181.47              3         416.11
         641.51              6         712.43
         599.77              6         584.90
          86.24              3         437.40
         487.24              6         214.64
         249.15              4         644.33
         203.24              4         495.23
         121.01              2         420.52
         708.50              5         377.33
         102.95              3         533.97
         262.87              5         939.12
         471.88              5         428.38
         534.75              3         282.79
         235.60              3         601.94
         406.55              6         530.66
         341.24              4         306.02
         114.94              3         225.15
         392.68              4         120.23
         501.45              5         640.57
         207.38              4         321.38
          71.60              2         364.19
         365.72              5         571.53
          94.01              2         477.10
          55.61              2         548.28
         270.64              4         883.73
          96.85              3         303.26
         259.62              5         375.74
         273.52              4         271.59
         445.52              6         840.75
         268.02              4         204.80
          30.46              1         441.88
         369.39              5         512.80
         384.01              3         766.09
         407.18              5         737.58
         313.19              4         530.59
         421.28              6         878.83
          79.01              2         376.76
           6.77              0         709.14
         653.73              5         524.75
          12.60              1         283.36
          35.96              2         732.69
          14.22              1         503.65
         287.91              5         353.80
         192.74              3         346.30
         691.07              7         407.55
         297.99              4         298.45
         220.75              3         653.83
         235.74              3         494.38
         410.91              6         339.54
         215.46              4         443.90
          71.16              2         576.26
          32.34              1         322.18
         211.02              4         677.02
         430.06              7         655.65
         393.87              6         173.77
         502.85              5         291.94
         184.02              3         269.42
          80.70              2         245.43
         647.17              8         668.57
         360.12              4         459.78
         808.76              6         575.93
         713.55              9         656.29
         818.09              9         465.00
         181.14              3         250.50
         211.09              2         720.85
         580.26              6         144.25
         542.81              7         195.26
          42.99              2         395.02
         601.40              8         454.27
         287.02              5         457.12
         676.46              7         604.91
         546.66              4         633.43
         318.99              5         843.78
         192.22              3         645.81
           9.19              0         163.50
         756.04              6         618.64
         474.14              6         400.56
         508.87              5         314.65
         106.74              2         340.65
         168.51              4         550.14
        1120.93              8         623.85
         269.06              5         328.26
         162.41              4         630.26
         224.01              4         512.67
         460.01              5         422.55
         187.14              4         483.35
          27.84              1         383.80
          61.30              2         604.48
         287.28              5         629.91
         262.78              3         819.42
         352.92              5         851.42
         832.64              6         348.80
         318.19              4         555.44
        1135.37              6         276.21
          57.99              2         331.14
         233.71              4         419.42
          88.14              2         175.86
         875.72              9         498.59
         640.48              7         936.51
         467.47              6         233.80
          63.33              2         326.81
         680.43              7         275.67
         125.69              2         463.31
         304.65              4         354.49
          91.01              3         597.14
         267.36              4         286.79
         268.14              4         312.52
         104.72              2         431.15
         304.29              4         615.16
         502.84              7         508.41
          68.77              2         498.85
         737.45              8         182.94
         423.76              6         246.65
         269.66              5         243.10
         112.05              2         315.55
         774.21              8         523.15
         231.99              3         319.92
         203.39              4         902.78
        1190.88              9         691.31
          69.44              2         477.31
         640.70              7         660.10
          19.79              1         386.12
          42.61              1         480.02
         741.23              5         437.51
         125.38              3         422.04
         620.96              6         452.12
         162.94              3         135.04
          59.16              2         291.54
         126.39              2         220.03
         221.95              4         751.01
         104.97              3         354.71
        1247.58              9         522.55
         497.17              5         474.20
          54.73              2         523.96
          67.00              1         452.30
         670.03              5         544.96
         403.02              6         695.41
        1036.62              9         391.60
        1119.80              7         540.94
         254.89              4         488.51
         321.30              5         411.22
         215.10              3         209.99
         174.93              3         477.51
         148.38              3         442.25
         317.17              4         142.50
         466.20              6         627.63
         190.54              4         396.05
         426.19              4         247.21
        1292.75              8         539.48
         769.52              9         512.97
         211.70              3         296.08
         723.88              6         233.57
          97.37              2         325.88
         308.56              4         396.45
         449.08              4         408.82
         444.68              5         516.77
         265.16              4         634.86
         126.16              2         671.20
         581.99              6         302.62
         719.13              5         655.10
         173.60              2         359.25
         493.99              5         659.86
         538.50              6         317.97
           9.41              0         344.64
         120.43              2         385.95
         447.41              6         617.41
         259.24              4         725.47
         654.90              6         109.36
          24.51              1         539.82
          99.01              2         744.39
         427.32              6         292.87
         225.72              4         274.38
         151.38              4         456.16
         552.54              7         448.91
         208.91              3         520.20
        2245.88             12         162.96
          58.00              1         188.56
          66.71              2         423.54
         139.10              2         273.20
        1201.88             11         507.81
         494.64              4         655.36
         425.26              4         532.64
         128.12              3         843.60
        1101.03              9         361.30
         208.98              4         348.78
         613.19              5         613.99
         167.70              3         284.91
          39.18              1         741.12
         295.16              5         578.14
         206.04              4         637.13
         161.32              3         433.54
         479.55              6         284.21
         551.14              4         448.26
         512.55              6         443.21
         299.55              5         350.60
         296.98              5         321.12
         237.00              5         328.73
         353.78              4         401.35
         447.93              6         384.61
         122.56              3         679.91
          58.82              1         291.23
         192.74              4         674.56
         705.11              6         288.32
          92.55              2         495.89
         319.55              5         385.55
         150.14              3         440.19
         115.30              3         570.38
         305.54              3         609.83
         233.05              3         330.40
         247.07              4         377.60
         137.58              3         861.95
         678.08              6         534.45
          30.33              1         238.96
         208.58              4         447.29
         449.67              5         309.53
          74.33              2         745.20
          78.56              2        1073.01
         273.86              4         389.31
         269.14              5         421.26
         635.15              5         815.70
         149.92              3         553.42
         789.40              7         700.64
          26.26              1         429.95
         796.78              8         290.46
         452.29              7         533.67
          63.20              1         305.68
         808.00              8         700.06
         706.69              7         432.13
         557.35              6         757.73
         189.55              3         679.82
        1053.04              6         580.49
         392.43              6         368.27
          66.85              2         481.76
         194.70              2         323.39
         458.88              6         597.26
          87.88              2         551.74
         536.88              6         461.34
         642.68              6         418.84
         607.23              6         714.27
          96.92              3         462.90
         189.75              4         581.62
          64.21              2         809.62
         721.74              5         600.14
         405.37              6         274.18
         576.34              6         180.64
         694.19              7         664.63
          43.53              1         546.77
         606.05              6         511.69
         119.71              3         272.41
         402.50              5         324.65
        1206.71              8         197.20
        1581.76             10         577.33
         195.78              4         497.46
         153.11              3         391.87
         120.30              2         773.02
         373.97              4         546.99
         585.87              5         409.27
          16.71              1         745.27
         544.58              5         718.20
         253.26              4         643.86
         354.84              4         473.08
         227.97              4         936.34
         513.30              6         356.90
         461.37              7         399.54
         298.98              6        1335.86
         433.94              5         470.55
         244.95              4         692.99
         326.94              6         356.78
         720.25              7         458.23
         225.21              3         343.03
         528.69              5         269.75
         186.52              4         490.37
         174.32              3         219.21
         533.47              5         645.03
          21.33              1         331.15
         249.26              2         219.94
         489.68              6         609.37
         564.45              6         640.82
         590.58              6         376.44
         263.18              5         822.75
         180.03              4         266.17
         177.64              3         836.60
         720.73              6         251.42
          29.16              1         124.47
         862.31              9         493.58
         865.76              7         492.27
         167.43              3         670.21
          73.71              2         506.01
         294.36              5         253.91
          50.96              1         402.54
          54.57              2         209.25
         127.32              3         166.57
         561.91              7         192.89
         121.22              3        1094.78
          88.82              2         358.63
          68.27              1         546.03
         184.62              4         429.46
         172.14              3         495.82
         903.63              6         253.48
         737.58              9         550.41
         499.49              6         909.42
         287.71              4         653.31
        1994.76             10         422.28
         484.64              3         684.30
          53.94              2         310.18
         696.35              5         767.73
         776.85              6         640.85
         446.25              6         569.49
          86.46              2         156.39
         230.69              3         216.51
         713.11              7         222.24
           3.14              0         450.00
         648.21              7         651.77
         505.24              7         232.74
         782.82              6         458.85
         432.55              5         227.43
         752.46              8         556.36
         210.36              2         618.92
          73.68              2         634.35
         950.95              8         450.02
         323.37              5         394.52
         180.90              3         362.48
         142.51              2         558.61
         569.63              5         236.02
          50.99              2         554.47
         375.06              4         769.93
         323.54              2         135.29
         629.21              6         761.74
         971.50              8         447.33
         115.41              2         565.34
          44.83              1         460.58
         526.17              7         538.30
        1386.65             11         195.72
         292.39              4         533.82
         211.47              4         614.33
         354.41              4         334.14
         402.81              5         513.26
         329.19              4         351.62
         551.10              3         338.95
          88.61              2         423.96
        1112.25              5         512.00
         619.21              6         581.10
         290.37              4          90.33
        1685.16              6         448.38
         798.59              7         557.84
         358.39              6         310.23
         289.52              3         459.10
          85.13              1         636.10
         638.60              6         500.23
         289.71              4         227.87
         115.84              3         465.91
         584.03              7         513.86
         241.76              5         208.12
         390.88              5         328.51
         342.52              3         427.45
         470.53              5         710.73
         454.61              4         565.54
         863.17              8         354.40
         952.15              6         289.52
         571.99              5         375.51
         302.05              5         529.85
         453.02              6         155.73
         646.33              4         569.10
         621.38              5         557.64
          73.85              2         683.11
         113.64              2         571.10
         606.73              6         440.43
         422.10              5         187.40
         216.54              3         277.91
         947.83              7         220.02
         218.52              4         692.41
         342.93              4         598.57
         480.89              5         566.93
         858.60              6         371.79
         427.23              6         313.98
         221.35              4         750.16
        1385.82              8         508.40
          70.76              2         317.59
          14.84              1         551.15
        2086.84             10        1070.25
          31.28              1         571.14
         250.81              3         163.66
         206.92              4         179.02
         119.46              2         698.90
         120.03              2         492.28
         197.24              3         418.16
          72.17              2         916.31
          49.74              1         325.81
         293.08              4         429.73
         208.67              3         741.05
         268.42              4         838.46
        1303.55             10         416.64
         327.21              4         725.23
         333.88              5         157.17
         752.96              8         888.30
         280.79              3         551.45
         743.01              8         264.01
          32.58              1         321.14
          78.98              2         326.08
         161.53              3        1077.56
         940.83              7         456.73
         323.27              5         410.56
         498.38              5         324.01
         804.93              6         366.99
          81.79              2         359.80
         335.02              5         438.91
         515.48              6         529.00
         950.08              8         648.00
         207.69              4         374.16
         127.23              3         102.90
         171.22              3         417.90
         287.97              5         495.46
         212.30              3         608.84
         167.95              4         503.36
          57.61              1         522.67
         121.80              2         369.33
         384.57              5         284.88
         316.71              5         449.48
         848.05              9         406.06
         295.96              4         355.50
         344.64              5         493.57
         591.24              5         921.01
         140.64              3         964.49
         133.39              3         559.01
         229.65              3         748.95
         430.24              6         548.78
         180.29              2         463.42
         505.39              7         679.24
         158.05              4         664.47
         275.35              4         370.13
         609.78              4         435.77
         164.05              4         228.35
         219.66              3         498.75
         544.69              6         191.71
         352.52              6         186.87
         322.33              4         200.64
          98.57              3         504.46
          24.74              1         388.17
         402.35              5         627.07
        1127.32              6         966.97
         126.14              3         408.85
         121.52              3         387.25
         163.80              4         744.90
         159.87              3         683.56
         285.39              5         424.22
         213.87              4         282.49
         573.46              7         178.20
         237.32              4         459.83
         385.91              5         736.63
         346.10              4         412.55
         285.97              5         472.49
          94.74              2         968.13
         323.10              4         409.53
         197.47              3         824.02
         507.82              6         517.16
        1044.41              8         438.23
         118.85              2         486.88
         382.09              6         518.61
         756.69              8         439.21
