      #Soft_ZPE      #Soft_ZPE
   #Erot(W)cm-1    #Speed(m/s)
         178.54         423.10
          76.94         315.64
         157.25         600.99
          52.41         628.63
          74.59         601.06
         153.82         363.92
          60.12         441.57
         138.11         483.44
         257.98         265.76
          34.70         399.07
         168.20         314.61
         133.49         554.31
          74.10         559.62
          83.03         506.91
          73.21         366.56
         134.11         663.50
          62.61         332.20
         197.17         586.50
          24.16         535.53
         189.69         436.36
          76.66         564.75
          82.89         525.12
         322.98         236.52
         145.60         270.86
         141.97         320.06
          84.93         260.40
         231.33         435.75
          45.07         438.56
         237.65         202.80
          89.92         266.15
          50.86         444.42
         179.66         410.25
         138.55         447.50
         457.83         196.70
         246.58         429.14
         120.55         473.38
          88.74         437.56
         137.93         471.06
          33.43         672.58
          19.42         415.32
          77.61         699.71
         142.11         576.50
         104.80         484.28
         236.70         343.74
         324.93         451.21
         303.77         342.25
          79.89         500.93
         423.61         383.24
         145.68         581.46
          74.88         198.27
         277.58         403.62
          31.66         312.81
         401.18         228.21
         318.30         392.91
         297.38         190.28
          56.39         262.26
          98.27         718.41
         307.11         515.24
         370.86         226.41
         217.80         524.09
          97.53         466.92
         177.04         673.00
          43.73         521.44
          22.89         271.02
          47.48         387.10
         185.84         521.05
         323.10         472.04
         240.93         366.14
          43.18         462.09
         250.94         211.34
          98.06         550.29
         206.73         446.34
         202.61         308.55
         147.32         406.12
         293.39         434.66
          33.65         258.42
         173.93         240.08
         207.13         315.90
         241.49         509.53
         437.62         151.83
         559.39         334.96
         238.98         188.80
          94.28         178.30
         251.08         292.41
         214.31         398.01
         502.56         160.62
          43.84         426.71
          30.40         630.40
          28.18         590.01
          14.65         412.66
         299.55         292.93
         315.68         255.15
          63.79         562.52
          93.53         231.67
          84.04         403.48
         348.93         455.82
         346.54         288.01
         207.09         288.43
          19.75         342.36
         209.73         354.16
         112.40         610.22
         129.08         348.22
         118.40         451.26
         100.62         341.83
         242.65         289.78
          11.26         603.31
         326.25         446.76
         319.74         487.14
         110.95         468.12
         175.75         531.71
         176.36         454.18
         198.63         243.95
         437.00         283.30
         131.48         304.69
         446.49         379.45
         234.37         608.14
         153.54         417.76
         335.50         244.20
         151.12         482.02
         183.02         194.29
          49.77         378.40
         282.05         436.61
         201.67         401.91
         190.67         298.21
          79.99         327.08
         231.14         401.04
         145.51         598.34
         307.99         352.00
         177.09         518.61
         277.34         375.78
         202.23         214.41
          30.43         192.45
         164.53         634.62
          62.77         289.18
          52.54         288.80
          87.96         430.46
         285.19         409.79
         275.48         489.34
         293.04         493.57
         123.07         553.08
         534.16         247.06
         279.10         246.19
         368.98         228.53
           5.47         325.96
          17.53         446.69
         139.71         337.74
         265.20         625.55
          32.23         613.32
          76.67         554.79
         154.34         581.79
          98.72         260.52
         247.12         363.66
         112.33         397.95
         252.16         227.20
         184.80         414.13
         165.30         624.88
         276.70         327.02
         212.86         441.81
          51.38         509.94
         153.87         492.63
         410.06         302.34
         332.25         257.47
         400.46         332.60
          55.89         467.69
         166.76         436.46
          85.11         323.34
         105.18         248.84
         191.74         294.24
         262.32         433.21
           7.94         297.36
         189.68         342.33
         319.69         414.21
         209.81         289.50
         139.88         446.23
         277.50         434.39
         230.17         349.82
         399.76         346.98
         149.25         524.53
          35.47         346.84
         153.35         368.20
         222.81         177.49
         367.17         254.92
          64.60         536.68
         213.13         170.36
         261.11         346.70
         119.87         504.09
          20.23         556.90
         268.21         418.05
          70.11         245.16
          78.53         187.30
         102.19         207.12
         201.77         348.92
         388.87         231.19
         261.57         257.90
          40.04         533.72
         125.22         436.83
         177.42         356.48
         182.12         562.93
         411.57         236.08
          51.56         617.03
         131.91         627.26
         136.67         151.73
         194.48         510.35
          94.82         355.26
          52.47         269.65
         194.83         493.39
         365.01         189.79
         223.93         511.30
          20.07         246.96
         236.61         495.25
         287.36         227.00
         309.12         264.50
         220.09         262.16
         131.57         598.57
         213.88         528.58
         366.11         222.28
         396.82         316.39
         233.48         342.03
          36.94         484.66
         263.23         474.45
           2.53         118.53
         185.16         570.55
         148.60         201.69
         390.53         398.89
          49.17         361.49
         151.56         526.56
         293.68         393.95
          52.06         544.45
          95.27         402.91
         107.44         296.71
          90.50         675.61
         123.76         463.48
         272.09         180.85
         176.15         473.72
         273.98         358.37
         312.69         452.59
         185.66          90.72
         175.53         338.74
          11.65         434.38
         363.28          72.39
         362.36         457.40
         123.08         361.80
         183.03         123.13
         182.97         337.99
         291.86         579.85
         317.34         479.63
         207.48         333.71
          99.75         396.52
         368.15         410.16
         133.95         565.00
          81.75         249.54
         158.59         367.44
          68.90         560.01
         521.54         250.11
         403.61         242.66
         336.14         232.43
         459.36         227.86
          99.10         248.52
         220.48         282.95
          24.97         298.74
         182.68         489.20
         195.34         565.93
          99.32         420.60
         205.98         345.24
         116.91         273.04
         146.06         220.33
         241.94         445.40
         216.91         418.82
          49.30         162.82
         301.94         495.56
         373.79         360.88
         415.44          95.55
         309.31         154.97
         144.51         434.46
          98.35         495.65
         192.00         595.01
          98.26         465.24
         211.53         426.45
         376.07         264.94
         393.26         185.55
         187.00         501.69
         260.07         518.03
         137.16         556.86
         200.07         266.10
          90.32         420.66
         171.39         398.25
          26.79         569.14
         190.41         411.99
          49.66         338.79
         186.36         171.05
         139.47         414.48
         301.28         323.75
          81.12         527.77
         219.87         352.02
         242.75         443.96
          52.45         561.88
         167.46         589.66
         247.42         578.14
         143.00         286.44
         364.61         388.78
         177.03         479.72
         226.23         433.64
         293.91         505.05
          17.16         641.85
          93.40         217.63
         115.40         436.11
         601.12         108.69
          18.24         514.99
         335.60         311.56
          47.01         281.71
         174.04         304.19
          87.08         289.21
         144.06         348.36
         302.89         152.42
          99.53         230.74
         177.52         360.31
          72.40         685.76
          72.07         217.48
         144.73         370.34
         426.00         348.87
         141.71         398.47
         216.67         377.98
         166.11         542.90
         146.00         255.38
         131.93         280.57
         188.06         552.97
         385.54         468.51
          65.56         355.81
         222.55         597.96
         217.22         249.04
         180.61         284.79
         109.40         555.55
         153.58         221.91
          71.15         583.06
         252.45         309.16
         193.95         215.61
         554.66         304.15
         232.91         445.27
          13.03         358.62
         422.23         362.16
          71.67         253.97
         136.13         669.84
          95.82         672.34
         253.64         485.06
         210.33         164.12
         311.33         356.16
          13.05         361.05
         104.84         316.04
         193.69         423.01
         287.88         388.51
          50.08         665.28
         274.42         489.37
         310.76         153.91
          64.48         476.08
          39.33         363.27
         298.53         323.20
         180.36         216.35
         415.76         337.20
         110.19         470.88
         355.88         438.47
         297.87         447.02
         268.76         326.38
          21.37         429.21
         329.82         263.90
         409.24         363.76
         243.79         430.98
          40.57         449.57
          97.73         626.38
         105.25         190.24
         201.84         218.94
         168.77         504.63
         192.21         450.52
         157.03         212.13
         407.60         298.15
         268.65         267.80
         310.70         421.41
         506.61         210.50
         109.10         517.93
         304.39         204.27
          59.05         317.21
         251.82         375.09
         144.43         643.05
         158.25         568.38
         243.11         278.09
         174.85         652.38
         224.37         224.41
          75.82         396.82
         148.50         328.90
         281.73         454.65
         377.87         152.87
         274.16         283.79
          30.81         133.09
         218.27         215.11
         132.82         407.95
         453.03         332.53
         125.49         578.79
         214.16         482.33
         145.23         226.60
         108.86         307.19
         518.66         201.53
          93.90         390.07
         186.97         208.63
         317.22         187.94
         174.69         183.98
         160.52         290.43
          21.73         283.72
         120.16         461.83
         226.90         276.67
         281.79         240.95
          93.12         352.60
         153.43         200.82
         206.04         255.03
         163.47         598.75
         179.05         371.48
         317.86         504.65
         185.45         200.50
         322.29         427.63
         236.63         358.92
         417.06         480.18
         360.77         327.46
         368.72         213.02
          81.28         376.14
          46.23         666.81
         379.04         315.37
         160.93         190.63
         259.88         365.78
         189.11          91.08
          89.54         483.91
          66.51         391.21
         230.91         113.33
          77.00         588.43
         230.98         252.37
          50.74         141.29
         180.25         372.75
         168.70         400.29
         142.78         296.67
          73.58         679.96
         221.46         517.53
         338.55         300.25
          35.78         682.57
         253.64         358.41
         136.38         388.38
         145.56         416.87
         121.51         521.61
         337.20         388.05
         301.53         292.45
          80.37         503.39
          47.91         451.60
          63.63         374.48
          18.27         434.98
         159.40         446.75
         260.89         519.46
          23.99         657.21
         274.92         450.17
         270.24         313.22
         164.15         504.63
         230.38         401.20
         165.39         319.52
          37.35         384.24
         208.33         251.39
         218.51         539.04
          56.28         184.82
         150.00         298.00
         122.92         406.59
          46.99         356.47
         166.92         222.97
         414.13         182.99
         366.75         255.07
          60.85         300.03
         286.83         284.39
         107.30         429.38
          61.54         397.47
         290.96         543.39
         416.87         238.86
         194.42         389.22
         309.69         502.28
         263.44         174.58
          46.16         242.24
         145.54         487.76
         293.97         159.93
         139.99         274.29
         188.31         307.00
         378.77         305.21
         121.24         609.77
         102.61         142.15
         173.38         576.99
          45.16         684.84
         129.67         219.19
         198.06         517.46
         184.12         421.15
         276.20         189.95
         162.83         495.28
         255.01         380.42
         318.87         275.70
         213.28         417.88
         192.93         626.12
          22.62         380.30
         328.54         223.95
         498.14         104.96
           9.48         320.47
         130.77         401.07
         397.36         458.19
         237.25         340.64
          57.43         467.94
         254.48         382.67
          97.60         205.82
          28.91         577.85
         276.22         389.18
         334.64         340.10
         295.82         394.67
          75.45         432.90
         216.50         218.66
         241.80         302.87
         403.87         230.85
         471.60         343.11
         396.36         389.77
         275.34         348.23
         276.65         279.96
         331.49         424.87
         136.37         357.95
         196.85         402.27
         433.83         190.80
          48.70         341.39
         144.57         492.98
          30.30         438.32
         300.08         323.95
         257.34         357.94
         106.12         510.06
           6.39         261.03
         150.16         494.30
         352.67         183.68
         295.94         413.11
          50.87         378.26
         135.75         234.97
         371.89         256.18
         379.01         379.09
         202.81         452.51
         122.05         263.28
         262.25         432.39
          62.18         604.44
         304.99         330.49
         407.69         355.17
         123.10         354.64
         179.26         429.40
         550.31         158.37
         170.31         629.53
         300.21         396.46
          50.02         164.17
         360.37         356.08
         174.52         509.48
          99.03         394.19
         184.19          54.84
          61.95         528.72
          99.81         266.85
         144.34         348.61
          83.19         120.54
         198.35         467.70
         278.73         403.92
         236.79         392.23
         288.86         282.29
         230.01         419.38
         185.10         310.66
          38.75         170.67
         338.52         343.04
         283.37         477.84
         222.26         414.25
         337.65         444.14
         323.10         392.15
          79.78         109.14
         383.86         176.61
         135.20         358.86
         357.94         325.66
         173.25         302.85
         169.20         225.81
         110.37         466.06
          82.64         230.77
         178.67         385.42
         178.67         336.53
         260.63         490.65
          33.52         613.08
          64.76         499.13
         180.69         554.28
         228.76         535.76
         116.74         343.78
         155.96         180.23
          61.07         237.12
         245.41         286.87
          99.20         553.32
          73.63         387.06
         395.19         308.20
         473.39         127.30
          68.05         394.82
         216.69         503.49
          97.98         238.97
         365.12         336.89
         135.97         206.48
         445.53         122.96
         416.32         298.59
         188.08         141.56
         130.85         503.46
         157.39         312.21
         345.47         152.44
          47.53         592.56
          49.91         413.71
          23.14         536.96
         305.86         142.96
         134.34         189.48
          53.30         370.06
         282.88         323.14
          47.39         748.55
          87.62         456.47
         209.48         602.31
         102.13         281.59
         255.96         485.31
         124.08         512.12
         182.18         302.71
         168.59         496.74
         360.53         245.81
         177.92         620.35
         130.40         333.21
          92.61         516.40
          40.81         485.54
         211.75         378.72
         178.07         226.21
         160.64         171.77
          57.98         660.86
         111.92         386.91
         337.10         197.16
         279.03         513.70
         209.42         411.66
         193.52         354.28
         473.74         334.70
         194.34         500.39
          69.94         275.74
         197.16         573.14
          47.29         524.06
         451.77         251.49
          94.82         456.64
         124.72         328.21
         297.60         356.14
         180.66         237.03
         154.66         555.74
         242.99         442.90
         186.59         545.39
         269.63         381.90
         302.53         483.06
         151.97         357.15
         285.26         163.71
          45.42         245.19
         286.40         229.52
         402.43         223.10
         491.03         267.42
         203.92         149.06
          92.30         316.68
         142.67         415.31
          40.76         486.55
         234.67         121.75
          64.80         382.56
         126.07         407.16
          39.57         381.89
         137.17         139.23
         186.55         455.10
          93.23         626.12
         194.21         180.93
         397.55         275.05
          90.93         425.34
          55.77         632.31
         130.04         475.02
         230.93         364.39
          59.24         372.80
         106.94         258.28
         110.81         395.51
         179.19         414.66
          57.96         492.11
         424.33         286.53
         266.01         319.28
         277.29         362.46
          16.43         413.80
         226.84         142.62
          59.97         291.51
         300.44         322.10
          86.74         470.21
         177.98         287.50
         287.88         545.07
         207.08         229.81
         242.63         399.00
         198.14         471.33
         445.04         294.72
         133.81         510.83
         123.69         482.45
         241.82          45.74
         157.94         425.88
          57.84         243.49
         149.37         173.02
         111.04         578.81
         506.20         218.52
          81.97         630.78
         270.85         239.87
         164.03         303.94
         112.16         331.75
           4.79         208.13
          78.17         453.76
          89.49         307.69
         350.12         216.80
         315.64         480.89
         238.10         415.22
          29.53         430.53
         122.96         540.50
          61.11         648.18
          41.25         242.68
         261.05         489.13
         130.15         185.24
         255.03         398.27
          23.38         235.20
         351.69         441.34
          96.94         242.53
         383.46         211.21
         138.89         696.05
         202.55         535.80
         231.06         459.61
         124.63         580.19
         163.35         128.06
         295.01         208.44
         352.53         244.67
         172.30         341.74
         326.26         223.03
         173.94         583.42
          63.24         609.40
          33.11         653.53
         105.00         278.88
         404.63         435.39
         189.43         266.94
         392.40         246.91
         149.98         536.27
         162.20         573.25
         224.98          87.24
         245.27         450.97
         196.41         487.02
         145.35         424.63
         335.33         377.13
         308.87         320.86
         488.33         318.65
          49.91         266.56
         210.24         499.25
         558.03         104.67
         185.10         265.14
         229.22         254.59
         288.16         426.99
         244.13         417.72
         116.16         459.75
         224.11         568.78
         413.20         240.97
         469.01         130.01
         430.31         215.37
         290.74         269.01
         194.00         499.17
         143.56         289.16
         170.31         377.10
         564.02         169.27
         199.85         374.92
         244.97         350.83
          37.07         669.67
         480.63         216.36
         187.66         656.44
           9.09         452.73
         260.72         143.97
         225.97         262.90
         188.18         256.54
         334.15         216.74
          63.78         305.52
          61.68         517.53
          94.86         208.22
         297.83         424.00
         352.81         180.26
         114.55         374.76
         288.58         424.98
          69.86         525.85
         173.84         514.61
         393.42          74.92
         188.33         572.77
          97.85         177.47
         179.73         241.93
         108.04         555.51
         153.98         436.54
         123.88         246.76
         193.43         513.26
         187.58         425.52
         129.87         383.67
          66.79         495.61
         257.77         313.47
         331.55         515.77
          18.25         354.79
         100.53         487.96
          39.61         355.21
         113.92         552.79
          45.98         643.36
         230.63         413.27
         258.04         395.35
          41.96         346.85
         271.58         365.81
         208.23         334.21
         106.47         499.44
         544.65         211.62
         194.10         430.61
         301.28         348.49
          30.97         165.17
         162.41         318.52
          94.26         322.38
         363.30         506.44
          76.94         312.13
         180.58         511.44
         252.31         415.24
          56.84         617.51
         341.12         444.86
         240.02         338.19
         410.53         405.02
         117.07         444.13
         120.40         579.78
         155.81         524.92
          58.92         593.20
          17.67         476.15
          80.34         662.65
         230.94         524.18
          92.28         583.71
         102.29         427.99
         184.88         270.39
          45.41         480.21
         490.65         254.36
         204.48         340.33
         378.72         314.22
         105.44         539.39
          31.28         612.53
         268.68         222.04
          21.11         325.08
         179.74         301.53
          65.60         525.54
         177.67         599.50
         280.48         232.56
          62.70         282.99
          20.79         765.02
         211.09         379.31
         108.01         325.30
         230.86         283.40
         118.89         412.81
         142.52         553.81
         427.44         138.13
         304.33         238.07
         180.64         340.50
          30.11         392.36
         156.75         434.02
          57.43         386.54
         274.47         385.22
         224.08         461.37
         294.12         290.82
          28.67         523.69
         347.37         256.33
         172.11         435.27
         107.09         312.01
         149.57         657.18
         244.21         170.89
          90.77         222.20
         238.63         466.75
         134.25         224.76
          86.65         615.12
          58.71         471.36
         344.01         532.55
         145.66         392.78
         254.90         200.89
         164.03         220.24
         560.87         176.85
         165.75         260.66
          31.16         280.84
         231.16         269.31
         345.22         311.91
         103.36         354.72
         370.59         420.66
         207.37         188.58
          58.49         295.09
         165.18         514.91
         160.40         454.15
          23.42         666.54
          62.92         634.91
          91.43         475.94
         180.35         505.74
         114.04         429.39
          69.98         109.80
          68.87         431.23
          91.03         486.50
         355.41         485.65
          51.58         648.83
         332.02         259.43
         235.79         316.20
         315.34         343.24
          65.15         399.87
         163.44         481.29
         210.83         120.31
         502.85         216.03
         270.44         452.28
         379.47         249.36
         118.98         520.79
          64.76         417.78
         553.70         350.06
         139.04         469.87
         123.74         373.66
         286.15         231.44
         214.58         482.08
          57.60         375.02
         118.56         266.49
          39.66         605.96
         343.59         235.98
          98.08         246.68
         411.96         159.80
         273.32         408.06
         240.16         410.26
          99.17         296.88
          64.14         557.92
          93.60         509.68
         223.84         372.79
          84.67         347.43
         257.80         292.07
          19.94         638.05
          51.52         487.79
          27.74         527.00
          94.90         596.95
         418.77         386.40
         140.28         684.59
         143.99         500.83
         191.36         476.78
         321.24         418.21
          31.33         161.24
         358.30         322.93
         446.99          67.41
         197.29         414.43
         239.66         260.01
         327.16         340.42
         119.19         136.55
         160.28         502.45
          41.83         516.06
         137.96         497.28
         186.96         390.56
          19.62         372.94
         336.95         434.01
         235.13         508.57
         429.78         406.64
         159.46         475.10
         412.19         327.56
         485.13         279.07
          84.67         264.95
          45.88         312.54
         522.81         338.45
          77.01         596.05
          55.18         417.93
         369.13         285.78
         105.40         545.55
         259.58         454.96
          14.26         310.36
         402.34         136.18
         372.08         257.92
          22.29         195.71
         211.85         363.14
         192.26         580.70
          22.24         474.98
         375.50         355.33
          33.94         391.55
          41.71         689.25
         106.63         545.72
           6.64         412.53
         143.63         362.70
          82.47         415.44
         127.45         242.11
          78.98         574.28
          72.91         614.24
          64.19         224.14
         151.90         293.89
         162.32         434.17
         191.93         282.75
          91.49         199.24
         225.52         296.70
         120.69         342.13
         116.43         347.69
         201.46         405.07
         344.86         402.09
           9.03         675.00
         268.05         185.30
          55.52         264.57
         480.02         291.89
         375.45         459.37
         278.23         273.19
         167.84         382.91
          28.46         406.99
          34.47         418.98
         291.29         553.65
          32.43         338.91
         193.87         327.67
         168.81         337.41
         267.52         270.15
         418.54          61.53
         243.93         391.95
          54.92         605.54
         236.73         483.11
         103.22         299.01
         385.84         261.74
         301.39         512.27
          76.03         469.75
         319.16         397.23
         373.54         333.78
          78.66         566.01
         123.62         517.12
         282.53         277.79
         161.43         364.61
         216.61         373.62
         256.68         529.73
          62.14         565.14
         359.60         472.46
         416.35         299.51
          63.27         167.56
          24.43         721.67
         381.42         300.82
          21.18         271.20
          59.33         512.52
         436.29         276.27
          68.29         160.41
         125.75         406.14
          28.48         388.94
         303.51         273.95
         286.65         336.87
          12.06         319.98
         237.37         508.39
          99.01         330.38
         101.53         350.54
         353.66         342.92
          76.44         411.52
         386.58         383.68
         315.61         481.35
         167.76         246.42
         123.01         593.50
         456.90         157.31
         137.68         375.38
          49.47         684.88
         250.60         250.93
         494.99         303.22
         469.62         172.09
         229.74         441.40
         150.11         631.44
         448.75         178.97
         107.09         415.54
          74.21         521.29
         214.74         363.10
          11.18         428.45
         217.71         288.89
         248.90         490.11
         215.80         429.01
         134.84         407.59
         112.08         296.99
         434.38         448.10
         191.89         381.45
          36.95         114.83
         146.77         560.44
         362.58         368.90
          34.96         620.43
         236.28         268.47
         175.41         654.72
         103.25         270.25
         118.65         525.15
         316.73         304.96
         120.26         488.57
          17.78         344.18
         130.33         386.45
         275.97         288.66
         172.62         514.41
         154.42         257.53
         217.07         238.12
         233.86         329.66
         170.98         199.99
         191.07         249.57
         264.89         481.59
          46.35         636.99
         149.52         203.50
         116.14         193.86
         330.57         328.35
          44.82         476.62
         410.05         131.38
         215.48         343.21
          90.16         199.08
         405.68         380.12
          73.03         458.84
         234.88         422.93
         136.51         507.50
         244.75         270.85
          57.46         536.39
         188.94         278.73
         109.35         395.41
          88.45         310.64
         119.49         463.54
         298.72         434.20
         469.01         215.75
          90.50         560.31
         209.81         538.21
          77.46         103.80
         131.08         345.58
          36.25         335.89
         317.91         337.89
         238.59         106.35
          60.56         387.39
         262.78         391.12
         145.96         405.53
         348.73         435.44
         126.49         453.23
          26.92         289.62
         190.69         329.16
         139.61         343.47
         357.08         492.89
         181.35         332.50
          84.47         445.36
         143.01         301.74
          24.85         217.57
         424.28         317.09
          90.76         412.78
          31.78         487.85
         363.25         397.84
         151.18         350.63
          23.20         561.37
         169.76         438.22
         250.35         466.66
          80.98         687.09
         123.40         499.20
          94.58         489.11
         386.29         454.72
         139.32         539.23
         551.29         214.92
          47.27         341.38
         113.72         540.62
          86.14         402.49
         131.93         472.63
         216.62         383.63
         247.80         591.43
         353.24         414.64
          77.77         664.21
          61.28         487.54
         506.29         319.77
         471.97         275.61
         357.77         319.92
         110.89         336.00
          84.78         509.24
          48.98         525.34
         147.11         213.21
         153.58         221.07
         262.97         396.58
          93.30         251.31
         235.33         477.52
         149.58         211.58
         149.64         441.47
         241.95         312.08
         215.86         436.34
          95.17         403.84
         326.59         452.59
         257.01         353.75
         179.31         348.61
         152.09         302.17
          67.44         338.68
         255.15         148.33
         342.73         374.86
         172.28         368.38
         131.54         268.24
         188.43         382.53
          66.33         625.89
         111.41         485.32
         138.01          77.18
          57.87         464.70
         272.60         290.04
          59.39         548.79
         107.25         249.10
         256.29         351.37
         122.56         595.12
          15.19         327.62
          54.96         726.44
         410.09         221.19
         424.30         129.81
          49.20         566.12
         375.17         188.94
         340.93         268.08
          71.12         452.49
         413.61         243.33
         151.40         614.98
         122.51         210.66
         194.25         299.80
         110.45         585.30
         103.16         137.83
         105.40         305.50
         122.18         430.39
         500.37         313.47
          94.29         451.51
         171.22         196.74
          75.30         305.46
         152.55         343.71
          74.64         464.10
         436.23         396.78
         432.04         265.91
          46.84         521.55
         211.69         534.19
          89.81         253.19
         187.22         501.08
         310.86         272.76
         190.05         212.93
         226.81         388.95
          26.06         282.43
          50.50         606.91
          15.46         661.91
         389.02         357.94
         341.94         420.08
         221.75         218.38
         151.36         306.63
         240.95         497.51
          45.94         284.93
         183.81         199.03
         110.14         425.24
         101.10         526.04
         120.50         210.40
         361.47         518.91
         107.83         331.42
         229.43         461.51
         100.46         162.06
         200.91         582.55
         193.21         630.06
          73.02         226.68
         110.70         269.25
         279.73         498.91
         109.25         631.43
         273.32         275.66
         376.83         293.97
         166.37         593.94
         319.97         397.20
         144.59         555.29
         299.99         412.54
         226.88         218.79
         310.20         389.43
         233.67         573.68
          49.87         362.59
          36.73         618.29
         127.67         665.32
         194.80         541.56
          21.94         730.78
         292.56         231.38
         238.78         525.37
         244.81         250.83
         343.63         430.14
         192.55         327.31
          54.59         446.48
          97.78         436.94
          18.25         495.12
         218.59         407.70
         131.71         286.68
          53.51         376.37
         188.63         230.43
         162.55         459.56
         317.75         492.38
          88.49         312.73
         115.73         384.63
          46.37         463.56
         476.21         140.49
         153.04         249.39
         103.75         620.60
         159.18         425.45
         264.50         264.67
          95.27         653.25
          85.94         442.96
         378.11         374.72
         188.36         339.47
         501.00         280.99
          19.56         370.94
         194.26         226.77
         128.30         375.17
         377.98         274.76
         244.59         289.30
           5.05         169.18
         257.59         354.17
         101.68         603.73
         242.30         536.45
         525.75         150.77
         123.43         520.20
         124.33         397.86
         144.70         190.82
         221.83         423.86
          44.42         463.20
          15.81         445.37
         158.11         528.43
         365.64         110.55
          76.50         360.49
         414.11          90.41
         309.78         407.80
           3.09          82.40
         145.53         506.19
          56.16         352.53
         409.02         274.84
         273.00         322.10
         134.56         346.49
          85.58         324.87
          86.74         448.56
          90.97         536.22
         204.28         574.96
         353.71         307.20
         252.33         325.81
         434.84         190.03
         152.08         481.34
         482.62         312.10
         141.24         648.79
          31.56         522.46
         325.64         368.81
         134.67         300.48
           0.64         213.74
         208.16         456.68
         356.28         302.87
         173.48         389.45
         242.09         376.22
         139.62         634.84
          10.40         567.50
         535.64         312.18
         502.89         283.26
         119.69         589.56
         276.72         137.77
         460.63         277.12
          33.86         598.92
          67.85         181.87
         365.10         213.66
          84.59         267.43
         224.16         558.27
         167.65         488.10
         306.49         426.03
         182.41         417.42
         253.63         428.80
         136.05         659.67
         123.16         257.52
         241.75         401.43
           8.65         590.73
         167.41         273.72
          52.47         370.46
         365.91         140.33
         176.50         357.32
         314.14         401.73
          12.31         572.44
         367.32         270.50
          40.38         599.33
          32.80         222.99
          52.73         465.68
         276.74         494.92
         163.65         407.30
         244.34         506.76
          45.65         381.60
         316.66         291.29
         164.82         479.94
         455.29         165.03
         274.38         481.39
         253.07         340.84
         140.97         505.78
         438.39         388.12
          81.28         392.45
         423.68         340.60
         295.98         365.68
         196.60         377.56
         149.03         431.10
          99.10         360.33
         252.29         385.17
         305.81         553.40
         130.12         189.27
         167.17         463.69
         325.03         240.64
         211.31         162.76
         101.18         451.10
         200.50         527.27
         343.06         300.56
         245.75         454.02
         103.21         321.75
         183.10         381.42
         134.63         691.41
          84.30         181.00
         569.54         213.33
         246.43         102.53
          92.34         357.98
          50.04         218.55
         190.84         382.31
         218.58         267.81
         104.65         401.54
         174.76         370.54
         296.85         405.39
         348.93         208.55
         164.61         473.17
         248.50         573.08
          82.44         410.01
         457.73         352.50
         327.51         355.39
         123.97         585.90
          68.37         532.47
         106.20         416.65
         109.29         506.39
         168.82         354.60
         404.54         408.63
         483.05         177.45
         124.56         391.87
          55.49         450.13
         166.71         319.30
          89.77         643.44
         258.10         403.82
          92.73         277.64
         101.23         434.82
         162.47         274.26
          34.16         718.07
          68.72         449.78
          78.60         280.34
         179.53         597.86
         121.16         584.03
          34.42         473.54
          39.53         266.49
         307.33         372.96
         212.98         114.48
         331.65         496.34
         279.39         329.63
          48.72         398.28
         160.44         319.60
          42.81         519.82
         113.94         170.48
          57.84         356.46
         242.33         476.60
          42.17         756.58
          30.00         666.02
         137.13         272.12
          57.45         295.92
         181.18         584.01
         192.54         237.58
          76.70         484.42
          71.88         605.87
         297.21         180.15
         276.14         346.39
         117.77         393.13
         535.10         169.72
         161.56         227.17
         191.15         185.98
         384.54         319.07
         202.60         280.94
         475.67         165.89
         142.66         293.04
           5.96         230.34
         312.67         378.86
          33.51         454.59
          75.95         192.53
         372.69         464.76
         405.03         248.74
         325.48         473.61
         143.21         408.65
         466.44         362.61
         233.06         640.23
         247.37         382.52
         329.47         109.23
         336.38         448.35
         396.89         435.16
          77.47         418.55
          29.87         330.92
         222.23         194.06
         155.77         284.21
         244.57         211.70
         260.48         257.93
         462.86         322.99
         400.89         279.05
          68.79         634.63
         185.47         347.10
          69.80         292.77
         309.10         263.28
         116.30         531.56
         316.76         247.17
         137.35         273.24
          39.73         393.18
          73.54         261.19
          36.43         539.78
         388.18         217.28
         317.93         391.19
         105.63         432.72
         269.89         318.25
          40.56         344.45
         156.93         375.40
         286.32         282.78
         171.07         593.05
         108.49         507.65
         176.26         510.29
         171.84         270.57
         493.26         216.16
          66.86         275.33
         226.06         352.50
         209.06         281.63
         186.62         502.70
         259.29         460.21
         406.50         254.55
         142.76         300.34
         345.22         365.77
         148.82         427.13
         369.35         490.07
         198.74         366.69
          35.05         677.61
         157.22         385.50
         184.73         313.67
         374.03         449.39
         320.79         431.04
         216.64         380.61
         198.87         303.89
          34.68         348.70
          31.30         492.52
         389.81         324.14
         273.93         454.17
         304.70         324.09
         105.42         450.40
         134.25         342.75
          55.05         311.16
         145.82         262.07
         148.75         402.71
         159.32         356.82
         102.12         591.11
          66.31         321.83
         107.73         243.02
          71.36         423.34
         290.91         573.02
         341.58         220.63
         105.53         223.36
         310.97         553.89
         452.00         333.40
          63.70         466.16
          71.82         502.90
         301.44         273.65
         126.27         312.17
          65.28         537.09
         275.28         297.12
          92.57         387.17
          99.57         292.52
          86.80         399.59
          52.24         354.23
         275.02         473.30
         507.86         213.92
         215.22         540.56
         310.03         254.56
         387.62         134.39
          14.84         352.47
          41.80         309.18
         150.59         453.91
         157.24         465.28
         141.94         369.82
          99.88         295.97
          41.79         283.62
         532.26         175.83
         105.73         598.41
         275.29         530.43
         185.43         490.43
         170.26         269.07
         525.89         284.22
         110.34         643.08
         473.36         403.61
         150.75         414.75
         256.98         268.87
          83.49         426.24
          95.95         430.70
         266.06         456.02
         535.01         195.69
         254.96         189.66
         117.92         525.95
         190.27         631.04
          14.35         574.41
         288.32         368.13
         195.94         433.12
          55.55         416.99
         111.15         515.00
          40.97         386.65
          36.85         392.48
         255.68         356.24
         330.64         324.81
         310.65         316.98
         104.31         461.46
         155.49         440.11
          62.30         469.44
         151.41         172.78
         157.68         362.03
         184.68         258.31
         128.35         502.75
         312.10         215.04
         245.35         430.66
         329.40         178.18
          42.58         309.42
         125.62         292.61
          43.49         526.95
         196.96         418.41
         315.63         398.48
         299.43         334.69
         294.66         460.29
          51.10         697.57
         261.85         244.69
         253.70         209.55
         225.70         608.85
          41.54         490.30
         159.45         566.48
         152.41         339.16
         224.54         421.64
         465.95         244.02
         272.04         318.37
         141.95         623.91
         332.13         302.20
         576.69         173.32
         114.25         329.81
         192.93         394.83
         107.76         657.38
         197.35         169.21
         114.00         255.89
         158.92         386.60
         256.47         243.56
         287.67         293.39
         218.05         491.69
          11.54         459.55
         332.30         240.78
         413.36         320.66
          42.02         328.05
          59.23         673.53
          96.53         196.67
         181.66         349.44
          43.02         251.26
          40.55         468.20
          23.34         446.91
         521.17         370.26
          90.69         599.96
         300.34         366.71
         486.01         177.21
         195.48         540.36
         175.31         353.62
         386.50         277.48
          53.21         524.14
         272.94         489.96
         430.60         287.81
           1.25         476.92
          62.15         440.33
          31.27         633.61
         228.11         503.30
         237.60         255.85
         377.11         287.36
         127.26         384.73
         148.85         521.23
          16.72         348.67
         367.93         325.73
         260.98         126.68
         199.50         325.95
         259.68         367.51
         116.23         675.85
         255.02         360.54
          53.71         483.38
         251.19         226.00
         200.10         293.21
          47.70         328.59
         182.29         169.62
         203.90         302.00
         154.50         350.64
         230.18         290.19
         292.13         271.99
          54.18         530.79
         337.56         407.29
         125.82         581.12
         196.42         424.97
         168.55         671.41
         201.40         358.16
         366.95         179.40
          48.77         335.61
         228.01         393.90
          73.64         400.33
          73.43         390.17
          96.56         300.27
         121.19         429.78
         540.43         256.07
         368.39         204.76
         243.91         316.84
         124.47         229.98
         177.87         451.96
         535.76         215.19
         296.94         240.52
         179.78         245.59
         287.52         343.77
         215.70         421.37
         161.54         212.13
         348.07         337.06
         103.46         378.31
         467.28          46.94
         113.23         292.29
         164.90         518.29
         289.76         520.54
          63.41         333.90
         336.32         197.81
         247.82         526.91
         139.26         358.80
         114.58         407.41
         103.31         157.49
         232.40         227.01
          72.32         437.67
         167.04         439.45
         187.38         141.47
          36.25         376.48
         367.65         199.95
         389.35         174.34
          32.20         184.46
           5.04         395.49
         133.77         572.56
         191.80         349.98
         123.75         325.82
         153.52         595.81
         179.27         364.43
         119.08         653.13
          41.07         389.19
          82.28         692.83
          19.28         574.69
         214.78         353.66
         245.12         545.54
          62.83         308.60
          66.50         511.41
         320.42         325.90
          15.03         478.69
         351.31         213.89
         291.27         493.79
         209.85         399.86
         199.03         365.59
         149.64         314.81
         193.20         498.88
         425.00         208.12
         184.87         329.95
          54.43         546.52
         148.45         391.14
         177.78         385.80
         221.57         344.67
         353.73         388.53
          53.99         441.47
          55.08         565.80
         160.43         197.48
          89.34         540.78
         246.26         416.14
         558.91         170.65
         324.80         231.06
          27.57         215.11
         436.85         254.55
          71.84         325.14
         157.18         262.40
         304.54         237.27
          78.24         585.22
          74.79         451.79
          14.61         311.39
         158.89         359.74
         205.26         279.34
         379.57         435.38
          61.56         394.97
          94.64         630.76
         366.36         305.56
         228.45         250.02
         258.87         206.34
         419.00         241.26
         144.55         387.07
         330.39         122.02
         229.42         428.81
          70.56         227.42
         315.85         324.63
         248.81         543.82
         199.76         216.27
         163.11         276.93
          33.19         491.44
         228.86         430.45
          14.15         258.14
         251.96         355.36
         146.06         401.35
          35.92         208.39
         305.93         236.34
         116.86         486.26
          33.45         386.80
         583.16         153.36
          96.18         513.84
         334.27         258.21
         162.43         576.50
          82.35         327.30
         101.99         384.53
         368.36         376.83
         213.27         611.72
         376.76         354.28
         307.19         275.23
          38.11         710.39
         381.21         310.31
         550.04         237.91
         207.59         272.53
         404.56         452.38
          41.63         438.81
         218.25         183.37
         145.50         233.46
         160.55         418.50
          83.11         556.94
         396.01         280.50
          78.15         477.76
         168.73         469.49
         233.16         394.76
         131.83         517.24
          98.50         584.89
         138.54         350.24
         247.63         265.19
          59.91         510.59
         320.39         391.90
          12.53         225.91
         314.66         480.67
         169.69         543.35
          36.60         532.80
         167.72         445.67
         254.29         354.23
         210.89         539.96
         309.02         517.00
         510.11         105.61
         118.45         473.31
         128.46         224.16
         166.70         377.45
         174.79         484.64
         160.95         338.33
         183.90         314.84
         116.74         405.93
          29.81         605.91
         334.70         304.63
         237.55         390.39
         240.07         494.62
         107.26         387.88
         117.75         281.58
         224.81         531.81
         455.87         362.21
         166.91         287.35
         167.84         394.66
         153.87         216.33
         117.99         254.00
          39.96         501.10
         272.11         411.94
         401.42         145.57
          58.59         593.87
         227.44         391.02
         166.82         170.28
          94.68         400.67
          50.90         311.75
          65.26         546.16
         303.84         181.47
          74.06         449.93
         158.89         279.63
         126.93         474.36
          53.74         185.86
          98.53         449.77
         128.55         454.42
         308.98         298.50
         192.44         458.91
          77.86         340.53
          63.98         665.26
         394.14         247.51
          14.06         322.63
         251.15         226.19
          61.67         520.41
         195.74         509.59
         117.31         476.18
          92.47         352.00
         189.42         565.16
         146.60         361.75
          29.74         577.98
         471.91         302.98
         159.74         332.77
           7.43         554.83
          14.44         229.44
         325.20         219.97
         161.09         151.26
          12.75         653.02
          18.22         172.86
         297.49         333.53
         128.80         503.72
         385.54         295.14
         132.93         488.80
          19.78         410.55
          57.91         504.27
         287.16         236.48
          42.35         574.87
         272.96         334.24
         155.91         508.01
         130.84         302.44
          96.27         565.88
         102.92         402.92
         253.32         221.67
          91.72         573.73
          84.86         283.43
         327.49         292.48
         383.32         244.53
         277.09         425.30
         369.46         160.82
          87.11         467.98
         433.52         371.60
          22.43         296.95
          24.62         327.15
          83.78         458.35
          47.52         555.66
         132.58         559.63
          36.62         365.04
          52.23         477.66
         148.16         628.30
           8.73         204.61
         317.28         323.13
         100.11         463.90
         301.43         309.60
         108.87         506.15
         127.10         442.08
          94.69         485.39
         252.63         376.22
          84.96         295.64
         364.92         110.85
         219.32         295.28
          94.89         242.36
          72.40         534.29
         415.90         304.58
          28.53         257.58
         167.64         211.01
         157.65         251.36
         271.34         240.69
         112.82         485.52
         147.16         187.67
         275.06         278.97
         453.85         215.10
         189.81         502.70
          16.72         373.44
         307.93         146.04
         165.10         471.24
         119.63         671.11
         327.16         324.26
         227.68         251.83
         384.53         355.09
         254.98         462.67
         325.73         137.42
          79.07         168.63
         186.27         483.37
         230.45         592.44
         400.17         136.98
          54.36         329.04
         417.76         200.23
         164.41         227.81
         178.57         384.04
         344.59         378.03
         151.01         486.40
         369.27         239.95
         248.31         508.49
          23.95         395.25
         110.82         321.16
         137.06         386.68
         212.31         154.17
          43.39         468.78
         158.60         288.64
          31.38         522.52
         159.52         439.44
          13.53         441.90
         202.34         153.56
         146.55         254.49
         213.35         621.03
         193.79         367.85
         216.50         258.76
         244.26         404.97
         103.76         590.08
         259.54         386.40
         190.25         140.47
         121.80         246.29
         142.52         251.33
         146.51         416.27
         320.42         128.49
         135.49         356.34
         319.72         444.76
         170.13         400.94
         451.08         226.14
          71.74         650.32
          11.17         285.40
         266.86         223.46
         140.28         232.31
         118.49         476.21
         277.32         363.69
         254.23         274.55
         133.29         445.89
         279.43         471.16
          28.86         398.53
         274.88         402.80
         254.76         278.30
         124.32         198.54
          10.64         704.95
         105.12         361.73
         121.73         224.69
         196.38         240.81
         111.27         205.77
         194.06         422.82
         157.53         435.15
         139.01         289.80
         229.37         331.02
         499.65         277.43
         485.73         180.16
         239.64         416.36
         195.54         212.85
         362.19         245.83
          47.59         471.94
         129.28         423.54
         301.49         531.04
         265.74         291.34
         117.88         236.23
         108.06         494.70
         396.40         300.21
         384.35         317.65
         395.83         313.70
         111.63         628.21
          93.22         426.61
         108.25         537.67
         136.34         358.19
         218.99         264.66
          37.22         402.22
          92.31         511.63
         143.47         348.22
         188.25          92.87
         243.89         331.41
         219.70         278.27
         316.14         262.54
         323.50         333.68
         178.68         468.66
         138.12         264.28
         160.75         412.62
         229.11         344.45
         237.08         314.00
         124.46         362.34
         205.92         326.52
         365.93         413.44
         255.41         406.58
         503.37         119.49
          21.14         678.43
         198.25         650.24
         318.44         485.51
         191.43         211.25
         111.80         210.76
         216.67         304.66
         126.83         551.28
         102.90         120.76
           8.15         310.37
         159.98         440.11
         493.07         159.24
          74.59         586.64
         411.26         419.70
         362.11         335.26
         305.72         507.74
         184.34         252.51
         228.47         259.33
         360.99         261.15
         193.57         149.01
         200.91         584.91
          23.36         406.66
         201.04         289.64
         452.11         267.49
         242.94         106.42
         154.35         651.80
         294.44         455.56
         146.94         676.94
         284.61         399.00
          95.63         318.61
         128.28         529.81
          73.67         561.04
         328.94         494.48
         129.70         319.16
          10.35         566.51
         168.90         392.93
         288.31         204.11
         474.50         248.95
         333.74         326.78
         185.59         407.98
          33.29         235.35
          34.29         692.04
         289.83         442.15
          27.09         283.43
          92.67         330.07
         179.06         250.88
         105.81         273.92
         263.33         438.81
         226.34         484.99
          81.00         566.57
         232.99         352.28
         175.52         466.55
         127.64         310.36
         238.71         241.14
         146.81         406.56
         128.07         324.61
         320.59         402.24
          75.36         111.26
          76.14         186.95
         278.22         389.73
         124.21         635.08
         334.32         302.83
         302.41         394.06
          61.83         338.01
         301.87         363.59
         156.27         286.04
         427.85         422.12
         369.80         481.15
         384.35         389.03
         206.32         522.79
         160.76         393.52
         185.95         101.55
          23.82         305.45
         397.86         271.16
         287.82         472.30
          65.98         184.56
          65.86         388.83
          94.45         335.45
         201.82         246.18
           1.51         437.51
         476.61         129.08
         226.18         493.93
          62.33         653.29
         185.91         624.52
         105.39         467.69
          70.03         453.38
         262.97         306.37
         295.41         439.32
         260.28         180.02
         184.21         271.49
         182.98         216.05
         283.66         352.14
         124.91         243.42
         191.72         357.29
          35.22         427.56
         168.44         543.51
         142.52         639.74
         338.34         466.54
          39.48         411.55
         361.31         408.48
         142.03         257.52
         429.85         283.22
          88.96         425.57
         442.11         396.73
         440.30         425.84
         222.77         279.65
         251.39         253.35
          47.36         319.67
         120.57         287.03
         111.05         142.43
         203.81         384.24
         343.89         187.96
         325.02         404.36
         128.09         297.17
         179.33         578.93
          84.82         615.44
         238.71         598.74
         330.54         229.36
         303.14         375.13
         188.87         447.15
         222.68         439.48
         114.66         376.08
         398.72         308.28
         244.52         364.98
         387.12         267.57
         401.78         290.56
         145.59         233.62
         229.54         358.34
         195.64         128.68
         536.57         116.66
         134.13         294.19
         399.07         398.36
          80.76         249.36
          74.70         546.59
         128.51         615.65
          12.05         379.20
         168.43         449.17
          63.35         253.68
          49.71         533.61
          46.80         476.82
         282.31         331.90
         311.22         309.16
          93.02         290.65
         428.92         214.32
         171.13         579.58
         165.37         557.14
         428.84          86.10
         548.36         171.74
         294.01         409.18
         142.37         269.41
          40.79         245.46
         247.13         127.26
         137.88         517.71
         168.71         534.42
           7.12         388.74
          71.25         468.63
          26.33         319.01
         226.32         461.93
         190.61         523.25
          69.95         569.29
         126.22         223.17
         147.73         402.65
         212.86         521.89
         176.70         398.23
         348.52         434.69
         102.51         395.23
         265.21         446.72
         212.21         166.53
          65.43         620.19
          80.27         371.69
         177.23         356.36
         275.19         282.11
         123.50         531.02
         231.78         266.36
         355.75         326.48
         178.12         379.71
         102.97         337.88
         286.79         429.57
         337.78         302.22
         166.03         252.81
         203.20         169.69
         324.88         131.98
          61.86         287.79
         331.96         279.04
         393.10         280.71
         299.38         373.37
          48.86         377.07
          29.63         400.73
         246.24         242.27
         248.74          56.04
         264.31         343.86
         370.39         411.11
         202.42         432.10
          88.42         421.47
          71.51         174.72
          93.29         540.06
         355.39         481.56
         396.75         332.37
         337.28         166.69
         321.26         445.59
          39.33         244.84
          74.92         462.54
         177.14         327.98
         125.58         430.31
         176.74         407.22
         231.39         428.54
         121.49         394.51
         148.64         529.10
          38.74         409.58
         179.86         365.40
         133.04         276.00
         101.57         310.21
         351.45         334.96
         218.92         250.32
          56.83         223.24
          83.18         140.75
         397.19         253.52
         315.89         260.85
         273.78         516.11
         325.22         359.83
         142.19         452.80
         158.31         406.06
         213.93         568.01
         116.05         476.11
         279.22         527.78
         230.24         305.90
         292.05         219.02
         211.44         463.19
         141.54         271.26
          91.97         259.01
          64.10         566.89
         185.35         304.94
         160.45         595.24
         344.78         128.85
         169.94         320.11
          75.26         273.30
         401.21         362.49
         538.76         173.06
         258.34         452.24
         173.56         447.00
         254.40         482.38
          86.32         646.63
         240.39         582.27
         205.18         293.72
          72.26         444.11
         124.54         339.01
         289.33         526.78
         171.17         385.75
         172.64         418.92
         445.02         198.99
         131.30         456.38
         206.10         544.63
         160.66         192.58
         292.80         427.47
         117.94         565.28
         240.65         339.52
         323.22         387.45
         366.94         306.91
         148.76         433.33
         389.14         212.16
         308.87         376.24
          82.60         384.47
         250.88         522.61
          94.39         251.43
         265.93         613.78
         330.10         184.19
         120.54         380.45
          75.55         218.01
         275.78         382.17
         153.64         237.47
         358.47         388.77
         455.57         250.35
          29.19         365.02
          49.37         352.01
         229.64         245.99
          70.92         464.73
         326.72         197.70
          55.42         598.69
          14.15         291.31
          81.03         180.05
         141.11         271.87
         232.93         265.48
         350.62         452.31
         204.61         235.29
         138.74         398.90
         116.14         267.68
         181.25         188.33
          96.04         221.13
         103.31         374.86
         173.73         348.72
          49.28         175.66
          44.72         511.01
         185.89         239.73
         192.20         450.16
          32.74         682.05
          54.19         481.68
         266.13         344.77
         294.25         263.99
         220.81         266.82
          75.52         289.44
         214.49         445.03
          91.57         193.54
         217.84         333.82
          79.31         305.03
          53.60         259.97
          83.07         217.73
          68.48         291.58
         105.56         176.04
         121.05         656.19
         266.02         456.51
         148.43         584.89
          44.03         658.74
         372.20         238.38
         411.80         184.08
         357.38         369.52
         216.71         222.72
         207.51         309.47
         395.13         329.60
         310.52         201.52
         414.32         410.32
         276.25         332.27
         131.13         361.21
          69.39         338.15
          53.97         673.50
         177.43         321.36
          41.25         374.49
         415.94         442.19
         144.70         408.49
         155.63         508.72
          63.47         308.89
         336.27         437.67
         130.48         243.08
         155.35         369.06
          87.64         175.25
         126.78         270.32
          91.00         122.93
         203.32         336.66
          65.89         494.11
          49.63         476.98
         214.82         456.06
         132.66          72.87
          36.52         672.87
         322.57         475.96
         144.16         157.95
         354.25         335.85
          74.25         501.71
         243.88         200.62
         168.58         380.95
         115.94         283.84
         196.76         335.81
         190.52         308.53
         462.73         261.19
          17.31         543.19
         331.33         508.32
         123.82         276.86
         314.42         365.70
         139.86         645.20
          66.28         265.61
         139.05         283.15
         232.55         587.90
         367.96         276.94
         222.62         235.01
         122.45         553.60
          89.74         320.41
         227.04         567.96
          68.86         352.27
         225.79         286.80
          97.35         658.07
         222.09         472.05
         169.13         395.57
         184.80         446.60
         119.92         143.74
         373.23         398.45
          15.47         131.49
         185.91         503.46
         179.93         522.28
         329.91         266.01
         150.08         690.64
         354.12         276.73
         464.68         232.20
         147.67         156.02
         340.64         245.23
         123.83         228.26
         272.31         124.40
         247.57         467.91
          75.48         282.80
         184.63         389.58
          50.39         189.74
          43.06         191.48
          99.85         506.90
         355.50         180.73
          13.61         287.69
         149.70         524.95
         199.30         604.46
         106.13         355.50
         356.60         398.18
         222.02         463.66
         143.40         315.48
         127.19         469.22
         234.65         329.12
         287.57         254.84
         338.91         243.12
          41.24         372.03
         223.27         257.86
         108.93         252.59
         261.64         481.49
         149.77         340.19
          12.46         401.96
         448.43         257.45
          55.12         448.28
         220.78         612.53
         134.23         257.15
         189.41         495.92
         135.31         441.56
         229.59         189.68
         165.85         257.16
          74.33         119.48
         165.04         173.32
         101.70         338.12
          83.58         397.46
         464.50         262.60
         286.83         334.48
         124.29         415.40
          94.24         478.01
          19.81         230.72
          16.54         371.25
         131.28         369.44
          26.21         456.97
         421.88          77.39
         292.19         209.43
         341.95         448.51
         298.19         325.32
         134.27         492.56
         120.35         360.15
          21.76         415.03
         284.03         421.28
         152.59         450.97
          48.52         309.96
          15.22         310.56
          40.08         173.12
         428.04         318.45
         223.76         217.82
          84.43         609.44
         114.48         302.91
         270.61         110.85
         266.21         462.89
         149.29         156.16
         215.43         489.13
         235.17         144.37
         478.11         267.66
          35.54         506.36
         157.13         297.08
          55.17         304.43
         422.72         141.74
         398.64         346.64
         394.72         234.19
         152.97         388.66
         330.35         512.66
          52.37         654.60
         324.83         418.29
         189.87         413.97
         199.51         508.11
           6.50         218.19
         171.74         458.63
         122.69         350.44
          85.77         579.31
          62.46         166.04
         171.64         367.67
         128.19         339.45
         111.69         298.15
         129.25         324.91
          51.15         271.94
          31.94         539.00
          82.74         350.55
         360.18         329.48
         250.01         227.21
         403.89         172.36
          73.82         197.79
          82.21         303.51
         125.98         416.60
          90.40         507.79
         379.56         383.21
         133.27         516.10
          68.99         121.76
          90.45         709.98
         200.27         268.46
         113.51         542.15
          33.25         384.57
         170.20         340.07
          96.07         249.74
          60.16         355.82
         287.38         281.12
         314.28         501.83
          24.67         256.43
         184.66         610.11
         185.41         194.36
         456.98         296.53
          21.39         364.40
         133.58         600.79
         271.98         306.43
         257.70         284.70
          34.17         313.76
         275.00         349.24
          78.88         284.35
         175.26         243.93
          53.07         473.39
         340.06         222.50
         152.38         581.11
         194.49         530.05
          65.66         367.40
         197.43         437.84
         145.77         453.35
         126.88         452.83
          22.63         290.97
          75.79         291.56
          32.47         409.25
         454.11         267.16
          86.89         584.67
         253.98         296.42
         596.33         207.73
         285.47         307.48
         205.22         171.02
         240.76         546.87
         226.04         229.98
         349.51         374.82
         124.25         378.62
         164.54         299.25
         274.60         289.22
         268.52         160.65
         303.53         528.47
          78.26         373.18
         290.06         486.67
         195.25         273.30
          45.48         147.39
         143.90         332.15
         198.33         347.68
          70.29         268.16
         210.89         424.39
          54.37         199.45
         166.74         358.82
         108.15         488.31
         366.63         362.58
         185.27         544.20
         126.27         582.81
          36.19         259.23
         351.69         285.35
         277.92         342.19
         217.84         625.83
         203.33         359.05
         204.01         285.59
         145.92         328.92
         445.44         216.38
          82.25         580.05
         198.33         380.95
          34.44         435.46
         102.01         116.43
         168.67         264.92
         437.58         250.77
         529.36         249.08
         282.37         256.88
         160.82         510.14
         180.11         477.17
         209.65         465.32
          58.81         393.51
          17.62         697.80
          74.22         429.92
         218.53         423.66
         291.79         344.81
         398.17         263.02
          13.17          84.76
         101.04         635.97
         280.03         123.82
         101.14         477.60
         186.85         244.87
         177.75         396.47
         102.16         657.12
         265.53         363.10
         260.77         531.07
         128.12         275.63
         263.21         425.49
         196.59         436.47
           4.29         275.93
         214.27         344.49
         602.59         203.34
         237.83         353.65
         392.99         263.24
         200.73         350.67
         391.09         409.55
          26.65         366.73
          68.87         684.47
         242.57         391.45
         239.40         414.09
          64.01         392.46
         386.61         474.24
          71.24         383.50
         206.25         522.79
         398.43         352.03
         162.73         205.06
         234.08         367.96
         132.75         495.64
         189.41         466.92
          84.73         436.52
         167.90         179.93
         430.50         296.29
          67.98         570.73
          16.81         424.52
         252.90         508.36
         479.17         304.89
          61.72         403.75
         237.69         401.76
          95.39         354.48
         140.85         371.34
         116.03         351.07
         492.96          81.99
         172.62         439.05
         395.89         373.91
         275.21         526.46
         234.02         329.66
         129.33         189.97
         308.19         246.69
         287.82         465.81
          70.76         356.05
         201.46         475.21
          63.35         218.48
          55.34         256.09
          25.04         133.26
         140.36         527.18
         223.48         441.27
          72.61         690.90
         273.66         490.00
         354.34         168.79
         302.46         215.23
         295.26         513.03
         258.61         412.40
         385.07         227.61
           6.74         306.75
         184.79         309.44
         307.42         298.82
         279.66         424.34
         260.72         557.66
         244.06         161.56
         402.45         313.79
         240.96         311.74
         154.70         636.49
          99.99         393.24
          66.95         134.90
         255.78         315.17
         156.62         414.71
          53.24         570.88
         466.26         166.66
         199.13         404.37
         211.84         598.99
         296.57         414.06
         220.20         283.75
         172.25         221.19
          87.99         518.80
         273.53         376.44
         204.86         438.39
         107.32         514.51
         100.25         215.98
         300.88         386.72
         333.99         308.67
         145.02         601.15
         257.27         469.85
          58.77         148.82
         198.11         251.98
         107.17         596.30
         290.13         216.38
         363.56         185.00
         161.51         267.38
         228.70         311.10
         120.60         606.17
         198.81         260.21
          28.57         329.82
         142.94         228.64
         312.32         154.91
         113.30         502.67
         169.07         356.22
          64.39         407.05
         201.70         273.24
         351.03         408.25
         322.84         241.50
          43.06         126.28
          25.91         522.64
         167.98         143.76
         284.95         491.67
         242.23         534.34
         130.50         316.72
         190.16         393.07
          80.36         288.87
         204.17         521.75
         347.92         343.44
         293.25         366.86
         270.31         403.91
         272.27         247.56
         116.34         342.68
          53.77         253.74
          69.71         229.71
          36.08         293.56
         294.11         490.05
         135.67         417.55
         224.98         367.30
         182.45          54.06
          97.67         454.38
         179.40         298.79
         155.86         232.34
         173.94         282.83
          81.72         414.69
         160.34         269.19
          60.90         236.38
         127.41         228.73
         297.85         348.21
          64.22         220.92
          39.53         288.98
         128.47         250.34
         171.35         521.09
         166.50         413.32
         170.18         600.71
         199.79         574.45
         211.62         484.58
          81.27         258.03
         215.01         374.86
         227.63         341.51
          92.00         360.29
         167.36         262.21
         302.81         515.33
          97.30         508.68
          18.91         536.13
         305.14         475.04
         130.84         312.19
         207.21         290.06
         146.49         304.83
          80.96         576.48
         274.13         533.56
          93.23         529.26
         194.85         436.33
         212.18         487.70
         207.10         369.49
          62.89         369.87
         114.56         258.32
          89.72         382.64
          12.44         180.11
         216.02         540.06
         435.72         325.74
         277.97         411.48
         443.65         159.40
         189.42         582.01
         157.81         622.06
          35.40         373.07
          42.60         471.12
         123.51         305.28
         116.76         368.15
          91.11         263.78
         445.30         286.23
          85.58         404.29
         422.57         223.74
         143.13         292.85
         227.78         359.44
         120.46         451.55
         257.89         351.99
         149.52         289.54
         237.25         430.20
         178.65         346.65
         147.20         450.68
          94.90         547.98
         183.88         306.86
