   #Erot(W)cm-1    #Speed(m/s)
         178.54         423.10
          76.94         315.64
         157.25         600.99
          52.41         628.63
          74.59         601.06
         153.82         363.92
          60.12         441.57
         138.11         483.44
         257.98         265.76
          34.70         399.07
         168.20         314.61
         133.49         554.31
          74.10         559.62
          83.03         506.91
          73.21         366.56
         134.11         663.50
          62.61         332.20
         197.17         586.50
          24.16         535.53
         189.69         436.36
          76.66         564.75
          82.89         525.12
         322.98         236.52
         145.60         270.86
         141.97         320.06
          84.93         260.40
         231.33         435.75
          45.07         438.56
         237.65         202.80
          89.92         266.15
          50.86         444.42
         179.66         410.25
         138.55         447.50
         457.83         196.70
         246.58         429.14
         120.55         473.38
          88.74         437.56
         137.93         471.06
          33.43         672.58
          19.42         415.32
          77.61         699.71
         142.11         576.50
         104.80         484.28
         236.70         343.74
         324.93         451.21
         303.77         342.25
          79.89         500.93
         423.61         383.24
         145.68         581.46
          74.88         198.27
         277.58         403.62
          31.66         312.81
         401.18         228.21
         318.30         392.91
         297.38         190.28
          56.39         262.26
          98.27         718.41
         307.11         515.24
         370.86         226.41
         217.80         524.09
          97.53         466.92
         177.04         673.00
          43.73         521.44
          22.89         271.02
          47.48         387.10
         185.84         521.05
         323.10         472.04
         240.93         366.14
          43.18         462.09
         250.94         211.34
          98.06         550.29
         206.73         446.34
         202.61         308.55
         147.32         406.12
         293.39         434.66
          33.65         258.42
         173.93         240.08
         207.13         315.90
         241.49         509.53
         437.62         151.83
         559.39         334.96
         238.98         188.80
          94.28         178.30
         251.08         292.41
         214.31         398.01
         502.56         160.62
          43.84         426.71
          30.40         630.40
          28.18         590.01
          14.65         412.66
         299.55         292.93
         315.68         255.15
          63.79         562.52
          93.53         231.67
          84.04         403.48
         348.93         455.82
         346.54         288.01
         207.09         288.43
          19.75         342.36
         209.73         354.16
         112.40         610.22
         129.08         348.22
         118.40         451.26
         100.62         341.83
         242.65         289.78
          11.26         603.31
         326.25         446.76
         319.74         487.14
         110.95         468.12
         175.75         531.71
         176.36         454.18
         198.63         243.95
         437.00         283.30
         131.48         304.69
         446.49         379.45
         234.37         608.14
         153.54         417.76
         335.50         244.20
         151.12         482.02
         183.02         194.29
          49.77         378.40
         282.05         436.61
         201.67         401.91
         190.67         298.21
          79.99         327.08
         231.14         401.04
         145.51         598.34
         307.99         352.00
         177.09         518.61
         277.34         375.78
         202.23         214.41
         164.53         634.62
          62.77         289.18
          52.54         288.80
          87.96         430.46
         285.19         409.79
         275.48         489.34
         293.04         493.57
         123.07         553.08
         534.16         247.06
         279.10         246.19
         368.98         228.53
           5.47         325.96
          17.53         446.69
         139.71         337.74
         265.20         625.55
          32.23         613.32
          76.67         554.79
         154.34         581.79
          98.72         260.52
         247.12         363.66
         112.33         397.95
         252.16         227.20
         184.80         414.13
         165.30         624.88
         276.70         327.02
         212.86         441.81
          51.38         509.94
         153.87         492.63
         410.06         302.34
         332.25         257.47
         400.46         332.60
          55.89         467.69
         166.76         436.46
          85.11         323.34
         105.18         248.84
         191.74         294.24
         262.32         433.21
           7.94         297.36
         189.68         342.33
         319.69         414.21
         209.81         289.50
         139.88         446.23
         277.50         434.39
         230.17         349.82
         399.76         346.98
         149.25         524.53
          35.47         346.84
         153.35         368.20
         222.81         177.49
         367.17         254.92
          64.60         536.68
         213.13         170.36
         261.11         346.70
         119.87         504.09
          20.23         556.90
         268.21         418.05
          70.11         245.16
          78.53         187.30
         102.19         207.12
         201.77         348.92
         388.87         231.19
         261.57         257.90
          40.04         533.72
         125.22         436.83
         177.42         356.48
         182.12         562.93
         411.57         236.08
          51.56         617.03
         131.91         627.26
         136.67         151.73
         194.48         510.35
          94.82         355.26
          52.47         269.65
         194.83         493.39
         365.01         189.79
         223.93         511.30
          20.07         246.96
         236.61         495.25
         287.36         227.00
         309.12         264.50
         220.09         262.16
         131.57         598.57
         213.88         528.58
         366.11         222.28
         396.82         316.39
         233.48         342.03
          36.94         484.66
         263.23         474.45
           2.53         118.53
         185.16         570.55
         148.60         201.69
         390.53         398.89
          49.17         361.49
         151.56         526.56
         293.68         393.95
          52.06         544.45
          95.27         402.91
         107.44         296.71
          90.50         675.61
         123.76         463.48
         272.09         180.85
         176.15         473.72
         273.98         358.37
         312.69         452.59
         185.66          90.72
         175.53         338.74
          11.65         434.38
         363.28          72.39
         362.36         457.40
         123.08         361.80
         183.03         123.13
         182.97         337.99
         291.86         579.85
         317.34         479.63
         207.48         333.71
          99.75         396.52
         368.15         410.16
         133.95         565.00
          81.75         249.54
         158.59         367.44
          68.90         560.01
         521.54         250.11
         403.61         242.66
         336.14         232.43
         459.36         227.86
          99.10         248.52
         220.48         282.95
          24.97         298.74
         182.68         489.20
         195.34         565.93
          99.32         420.60
         205.98         345.24
         116.91         273.04
         146.06         220.33
         241.94         445.40
         216.91         418.82
          49.30         162.82
         301.94         495.56
         373.79         360.88
         415.44          95.55
         309.31         154.97
         144.51         434.46
          98.35         495.65
         192.00         595.01
          98.26         465.24
         211.53         426.45
         376.07         264.94
         393.26         185.55
         187.00         501.69
         260.07         518.03
         137.16         556.86
         200.07         266.10
          90.32         420.66
         171.39         398.25
          26.79         569.14
         190.41         411.99
          49.66         338.79
         186.36         171.05
         139.47         414.48
         301.28         323.75
          81.12         527.77
         219.87         352.02
         242.75         443.96
          52.45         561.88
         167.46         589.66
         247.42         578.14
         143.00         286.44
         364.61         388.78
         177.03         479.72
         226.23         433.64
         293.91         505.05
          17.16         641.85
          93.40         217.63
         115.40         436.11
         601.12         108.69
          18.24         514.99
         335.60         311.56
          47.01         281.71
         174.04         304.19
          87.08         289.21
         144.06         348.36
         302.89         152.42
          99.53         230.74
         177.52         360.31
          72.40         685.76
          72.07         217.48
         144.73         370.34
         426.00         348.87
         141.71         398.47
         216.67         377.98
         166.11         542.90
         146.00         255.38
         131.93         280.57
         188.06         552.97
         385.54         468.51
          65.56         355.81
         222.55         597.96
         217.22         249.04
         180.61         284.79
         109.40         555.55
         153.58         221.91
          71.15         583.06
         252.45         309.16
         193.95         215.61
         554.66         304.15
         232.91         445.27
         336.95         434.01
         235.13         508.57
         119.49         463.54
         298.72         434.20
         469.01         215.75
          90.50         560.31
         209.81         538.21
          77.46         103.80
         131.08         345.58
          36.25         335.89
         317.91         337.89
         288.86         282.29
         230.01         419.38
         185.10         310.66
          38.75         170.67
         338.52         343.04
         283.37         477.84
         222.26         414.25
         156.75         434.02
          57.43         386.54
         274.47         385.22
         224.08         461.37
          28.67         523.69
         347.37         256.33
         238.59         106.35
          23.14         536.96
         305.86         142.96
         115.73         384.63
          46.37         463.56
         476.21         140.49
         153.04         249.39
         103.75         620.60
         159.18         425.45
         264.50         264.67
          95.27         653.25
          85.94         442.96
         378.11         374.72
         188.36         339.47
         501.00         280.99
          19.56         370.94
         194.26         226.77
         128.30         375.17
         377.98         274.76
         244.59         289.30
           5.05         169.18
         257.59         354.17
         101.68         603.73
         242.30         536.45
         525.75         150.77
         123.43         520.20
         124.33         397.86
         144.70         190.82
         221.83         423.86
          44.42         463.20
          15.81         445.37
         158.11         528.43
         365.64         110.55
          76.50         360.49
         414.11          90.41
         309.78         407.80
           3.09          82.40
         145.53         506.19
          56.16         352.53
         409.02         274.84
         273.00         322.10
         134.56         346.49
          85.58         324.87
          86.74         448.56
          90.97         536.22
         204.28         574.96
         353.71         307.20
         252.33         325.81
         434.84         190.03
         152.08         481.34
         482.62         312.10
         141.24         648.79
          31.56         522.46
         325.64         368.81
         134.67         300.48
           0.64         213.74
         208.16         456.68
         356.28         302.87
         173.48         389.45
         242.09         376.22
         139.62         634.84
          10.40         567.50
         535.64         312.18
         502.89         283.26
         119.69         589.56
          61.07         237.12
         245.41         286.87
          99.20         553.32
          73.63         387.06
         395.19         308.20
         473.39         127.30
          68.05         394.82
         216.69         503.49
          97.98         238.97
         365.12         336.89
         135.97         206.48
         445.53         122.96
         416.32         298.59
         188.08         141.56
         130.85         503.46
         157.39         312.21
         345.47         152.44
          47.53         592.56
         172.30         341.74
         326.26         223.03
         173.94         583.42
          33.11         653.53
         105.00         278.88
         404.63         435.39
         189.43         266.94
         149.57         657.18
         244.21         170.89
         238.63         466.75
         134.25         224.76
          86.65         615.12
          84.67         264.95
          45.88         312.54
         306.49         426.03
         182.41         417.42
         253.63         428.80
         136.05         659.67
         123.16         257.52
         241.75         401.43
           8.65         590.73
         167.41         273.72
          52.47         370.46
         365.91         140.33
         176.50         357.32
         314.14         401.73
          12.31         572.44
         367.32         270.50
          40.38         599.33
          32.80         222.99
          52.73         465.68
         276.74         494.92
         163.65         407.30
         244.34         506.76
          45.65         381.60
         316.66         291.29
         164.82         479.94
         455.29         165.03
         274.38         481.39
         253.07         340.84
         140.97         505.78
         438.39         388.12
          81.28         392.45
         423.68         340.60
         295.98         365.68
         196.60         377.56
         149.03         431.10
          99.10         360.33
         252.29         385.17
         305.81         553.40
         130.12         189.27
         167.17         463.69
         325.03         240.64
         211.31         162.76
         101.18         451.10
         200.50         527.27
         343.06         300.56
         245.75         454.02
         103.21         321.75
         183.10         381.42
         134.63         691.41
          84.30         181.00
         392.40         246.91
         162.20         573.25
         224.98          87.24
         196.41         487.02
         145.35         424.63
         335.33         377.13
         308.87         320.86
          49.91         266.56
         210.24         499.25
         558.03         104.67
         229.22         254.59
         288.16         426.99
         244.13         417.72
         469.01         130.01
         143.56         289.16
         170.31         377.10
         564.02         169.27
         199.85         374.92
          58.71         471.36
         344.01         532.55
         145.66         392.78
         254.90         200.89
          31.16         280.84
         231.16         269.31
         345.22         311.91
         103.36         354.72
         569.54         213.33
         190.84         382.31
         348.93         208.55
         164.61         473.17
         307.33         372.96
         212.98         114.48
         331.65         496.34
         279.39         329.63
          48.72         398.28
         160.44         319.60
          42.81         519.82
         113.94         170.48
          57.84         356.46
         242.33         476.60
          42.17         756.58
         178.67         336.53
         260.63         490.65
          33.52         613.08
          64.76         499.13
         228.76         535.76
         116.74         343.78
         155.96         180.23
         230.63         413.27
         258.04         395.35
          62.92         634.91
          69.98         109.80
          68.87         431.23
          94.90         596.95
         418.77         386.40
         106.63         545.72
         127.45         242.11
          78.98         574.28
          72.91         614.24
          64.19         224.14
         151.90         293.89
          30.00         666.02
          33.51         454.59
          75.95         192.53
         372.69         464.76
         405.03         248.74
         325.48         473.61
          61.95         528.72
          99.81         266.85
         144.34         348.61
          58.92         593.20
          17.67         476.15
          80.34         662.65
         230.94         524.18
         102.29         427.99
         184.88         270.39
         490.65         254.36
         204.48         340.33
         378.72         314.22
         105.44         539.39
          31.28         612.53
         268.68         222.04
          21.11         325.08
         179.74         301.53
         177.67         599.50
         280.48         232.56
         108.01         325.30
         230.86         283.40
         118.89         412.81
         142.52         553.81
         427.44         138.13
         159.46         475.10
          84.67         347.43
         257.80         292.07
          19.94         638.05
          51.52         487.79
          27.74         527.00
         173.25         302.85
         208.23         334.21
         106.47         499.44
         544.65         211.62
         194.10         430.61
         301.28         348.49
          30.97         165.17
         162.41         318.52
          94.26         322.38
          91.03         486.50
         332.02         259.43
         235.79         316.20
         315.34         343.24
         270.44         452.28
         379.47         249.36
         161.54         212.13
         348.07         337.06
         103.46         378.31
         467.28          46.94
         113.23         292.29
         164.90         518.29
         289.76         520.54
          63.41         333.90
         336.32         197.81
         247.82         526.91
         139.26         358.80
         114.58         407.41
         103.31         157.49
         232.40         227.01
          72.32         437.67
         167.04         439.45
         187.38         141.47
          36.25         376.48
         367.65         199.95
         389.35         174.34
          32.20         184.46
           5.04         395.49
         133.77         572.56
         191.80         349.98
         123.75         325.82
         153.52         595.81
         179.27         364.43
         119.08         653.13
          41.07         389.19
          82.28         692.83
          19.28         574.69
         214.78         353.66
         245.12         545.54
          62.83         308.60
          66.50         511.41
         320.42         325.90
          15.03         478.69
         351.31         213.89
         291.27         493.79
         209.85         399.86
         199.03         365.59
         149.64         314.81
         193.20         498.88
         425.00         208.12
         184.87         329.95
          54.43         546.52
         148.45         391.14
         177.78         385.80
         221.57         344.67
         252.31         415.24
         341.12         444.86
         240.02         338.19
         410.53         405.02
         117.07         444.13
         191.36         476.78
         321.24         418.21
         358.30         322.93
         143.63         362.70
          82.47         415.44
         178.07         226.21
          83.11         556.94
         396.01         280.50
          78.15         477.76
         168.73         469.49
         233.16         394.76
         131.83         517.24
          98.50         584.89
         138.54         350.24
         247.63         265.19
          59.91         510.59
         320.39         391.90
          12.53         225.91
         314.66         480.67
         169.69         543.35
          36.60         532.80
         167.72         445.67
         254.29         354.23
         210.89         539.96
         309.02         517.00
         510.11         105.61
         118.45         473.31
         128.46         224.16
         166.70         377.45
         174.79         484.64
         160.95         338.33
         183.90         314.84
         116.74         405.93
          29.81         605.91
         334.70         304.63
         237.55         390.39
         240.07         494.62
         107.26         387.88
         117.75         281.58
         224.81         531.81
         455.87         362.21
         166.91         287.35
         167.84         394.66
         153.87         216.33
         117.99         254.00
          39.96         501.10
         272.11         411.94
          84.86         283.43
         327.49         292.48
         383.32         244.53
         277.09         425.30
         369.46         160.82
          87.11         467.98
         433.52         371.60
          22.43         296.95
          24.62         327.15
          83.78         458.35
          47.52         555.66
         132.58         559.63
          36.62         365.04
          52.23         477.66
         148.16         628.30
           8.73         204.61
         317.28         323.13
         100.11         463.90
         301.43         309.60
         108.87         506.15
         127.10         442.08
          94.69         485.39
         252.63         376.22
          84.96         295.64
         364.92         110.85
         219.32         295.28
          94.89         242.36
          72.40         534.29
         415.90         304.58
          28.53         257.58
         167.64         211.01
         157.65         251.36
         271.34         240.69
         112.82         485.52
         147.16         187.67
         275.06         278.97
         453.85         215.10
         189.81         502.70
          16.72         373.44
         307.93         146.04
         165.10         471.24
          18.25         354.79
         100.53         487.96
         162.32         434.17
         119.63         671.11
         193.79         367.85
         216.50         258.76
         244.26         404.97
         103.76         590.08
         244.97         350.83
          37.07         669.67
         187.66         656.44
           9.09         452.73
         260.72         143.97
         225.97         262.90
          63.78         305.52
          61.68         517.53
          94.86         208.22
         297.83         424.00
         114.55         374.76
         288.58         424.98
          69.86         525.85
         173.84         514.61
         393.42          74.92
          99.17         296.88
          93.60         509.68
         259.54         386.40
         190.25         140.47
         266.86         223.46
         140.28         232.31
         118.49         476.21
         277.32         363.69
         254.23         274.55
         133.29         445.89
         279.43         471.16
          28.86         398.53
         274.88         402.80
         254.76         278.30
         124.32         198.54
          10.64         704.95
         105.12         361.73
         121.73         224.69
         196.38         240.81
         111.27         205.77
         194.06         422.82
         157.53         435.15
         139.01         289.80
         229.37         331.02
         499.65         277.43
         193.43         513.26
         187.58         425.52
         129.87         383.67
          66.79         495.61
         553.70         350.06
         139.04         469.87
         123.74         373.66
         286.15         231.44
         214.58         482.08
          39.66         605.96
         343.59         235.98
          98.08         246.68
         411.96         159.80
         273.32         408.06
          77.01         596.05
          55.18         417.93
         369.13         285.78
         105.40         545.55
          14.26         310.36
         402.34         136.18
         372.08         257.92
         192.26         580.70
          22.24         474.98
          33.94         391.55
         485.73         180.16
         239.64         416.36
          75.36         111.26
          76.14         186.95
         278.22         389.73
         383.86         176.61
         135.20         358.86
          93.29         540.06
         355.39         481.56
         396.75         332.37
         337.28         166.69
         321.26         445.59
          39.33         244.84
          74.92         462.54
         177.14         327.98
         125.58         430.31
         121.49         394.51
         148.64         529.10
          38.74         409.58
         266.02         456.51
         148.43         584.89
          44.03         658.74
         216.71         222.72
         207.51         309.47
         190.52         308.53
         462.73         261.19
          17.31         543.19
         331.33         508.32
         123.82         276.86
         314.42         365.70
         139.86         645.20
          66.28         265.61
         139.05         283.15
         232.55         587.90
         367.96         276.94
         222.62         235.01
         122.45         553.60
          89.74         320.41
         227.04         567.96
          97.85         177.47
         179.73         241.93
         108.04         555.51
         153.98         436.54
          68.86         352.27
         225.79         286.80
         169.13         395.57
         184.80         446.60
         185.91         503.46
          48.52         309.96
          15.22         310.56
          40.08         173.12
         126.27         582.81
          36.19         259.23
         351.69         285.35
         277.92         342.19
         217.84         625.83
         203.33         359.05
         204.01         285.59
         145.92         328.92
         445.44         216.38
          82.25         580.05
         198.33         380.95
          34.44         435.46
         102.01         116.43
         168.67         264.92
         437.58         250.77
         529.36         249.08
         282.37         256.88
         160.82         510.14
         180.11         477.17
         209.65         465.32
          58.81         393.51
          17.62         697.80
          74.22         429.92
         218.53         423.66
         291.79         344.81
         398.17         263.02
          13.17          84.76
         101.04         635.97
         280.03         123.82
         101.14         477.60
         186.85         244.87
         177.75         396.47
         102.16         657.12
         265.53         363.10
         260.77         531.07
         128.12         275.63
         263.21         425.49
         196.59         436.47
           4.29         275.93
         214.27         344.49
         602.59         203.34
         237.83         353.65
         392.99         263.24
         200.73         350.67
         391.09         409.55
          26.65         366.73
          68.87         684.47
         242.57         391.45
         239.40         414.09
          64.01         392.46
         386.61         474.24
          71.24         383.50
         206.25         522.79
         398.43         352.03
         162.73         205.06
         234.08         367.96
         132.75         495.64
         189.41         466.92
          84.73         436.52
         167.90         179.93
         430.50         296.29
          67.98         570.73
          16.81         424.52
         252.90         508.36
         479.17         304.89
          61.72         403.75
         237.69         401.76
          95.39         354.48
         140.85         371.34
         116.03         351.07
         492.96          81.99
         172.62         439.05
         395.89         373.91
         275.21         526.46
         234.02         329.66
         129.33         189.97
         308.19         246.69
         287.82         465.81
          70.76         356.05
         201.46         475.21
          63.35         218.48
          55.34         256.09
          25.04         133.26
         160.28         502.45
          41.83         516.06
         186.96         390.56
          53.77         253.74
          69.71         229.71
          36.08         293.56
         294.11         490.05
         135.67         417.55
         224.98         367.30
         182.45          54.06
          97.67         454.38
         179.40         298.79
         155.86         232.34
         173.94         282.83
          81.72         414.69
         160.34         269.19
          60.90         236.38
         127.41         228.73
         297.85         348.21
          64.22         220.92
          39.53         288.98
         128.47         250.34
         171.35         521.09
         166.50         413.32
         170.18         600.71
         199.79         574.45
         211.62         484.58
          81.27         258.03
         215.01         374.86
         227.63         341.51
          92.00         360.29
         167.36         262.21
         302.81         515.33
          97.30         508.68
          18.91         536.13
         305.14         475.04
         130.84         312.19
         207.21         290.06
         146.49         304.83
          80.96         576.48
         274.13         533.56
          93.23         529.26
         194.85         436.33
         212.18         487.70
         207.10         369.49
          62.89         369.87
         114.56         258.32
          89.72         382.64
          12.44         180.11
         216.02         540.06
         435.72         325.74
         446.99          67.41
         327.16         340.42
         277.97         411.48
         443.65         159.40
         157.81         622.06
         106.12         510.06
           6.39         261.03
         150.16         494.30
         352.67         183.68
         295.94         413.11
          50.87         378.26
         135.75         234.97
         371.89         256.18
         379.01         379.09
         202.81         452.51
         122.05         263.28
         262.25         432.39
          62.18         604.44
         304.99         330.49
         407.69         355.17
         179.26         429.40
         550.31         158.37
         170.31         629.53
         300.21         396.46
          50.02         164.17
         360.37         356.08
         174.52         509.48
          99.03         394.19
         184.19          54.84
         198.35         467.70
         278.73         403.92
         236.79         392.23
         323.10         392.15
          79.78         109.14
         169.20         225.81
         110.37         466.06
          82.64         230.77
         178.67         385.42
          49.91         413.71
         193.52         354.28
         451.77         251.49
          94.82         456.64
         124.72         328.21
         297.60         356.14
         269.63         381.90
         302.53         483.06
         151.97         357.15
         285.26         163.71
          45.42         245.19
         286.40         229.52
         402.43         223.10
         491.03         267.42
         203.92         149.06
          92.30         316.68
         142.67         415.31
          40.76         486.55
         234.67         121.75
          64.80         382.56
         126.07         407.16
          39.57         381.89
         137.17         139.23
         186.55         455.10
          93.23         626.12
         194.21         180.93
         397.55         275.05
          90.93         425.34
         230.93         364.39
          59.24         372.80
         106.94         258.28
         110.81         395.51
         179.19         414.66
          57.96         492.11
         424.33         286.53
         266.01         319.28
         277.29         362.46
          16.43         413.80
         226.84         142.62
          59.97         291.51
         300.44         322.10
          86.74         470.21
         177.98         287.50
         287.88         545.07
         207.08         229.81
         242.63         399.00
         198.14         471.33
         445.04         294.72
         133.81         510.83
         123.69         482.45
         241.82          45.74
         157.94         425.88
          57.84         243.49
         149.37         173.02
         111.04         578.81
         506.20         218.52
          81.97         630.78
         270.85         239.87
         164.03         303.94
         112.16         331.75
           4.79         208.13
          78.17         453.76
          89.49         307.69
         350.12         216.80
         315.64         480.89
         238.10         415.22
          29.53         430.53
         122.96         540.50
          61.11         648.18
          41.25         242.68
         261.05         489.13
         130.15         185.24
         255.03         398.27
          23.38         235.20
         351.69         441.34
          96.94         242.53
         383.46         211.21
         138.89         696.05
         202.55         535.80
         231.06         459.61
         124.63         580.19
         163.35         128.06
         295.01         208.44
         352.53         244.67
         113.92         552.79
          45.98         643.36
         155.81         524.92
         107.09         312.01
         240.16         410.26
         120.69         342.13
         116.43         347.69
